Results for:	
File:	C:\Users\User\OneDrive - Massachusetts Institute of Technology\Documents\MIT\Grad School\Classes\2.156\Lens Project\Prime Lenses\US07474478-1.ZMX
Title:	
Date:	11/7/2025 5:48:27 PM

0 message(s) in output.
3 series table(s) in output.

Table series: Data for wavelength : 0.486133 µm.
   Y Angle (deg)       Tan Shift       Sag Shift     Real Height     Ref. Height      Distortion
  --------------  --------------  --------------  --------------  --------------  --------------
      0.00000000    -0.020834782    -0.020834782      0.00000000      0.00000000      0.00000000
      0.30500000    -0.020808307    -0.020836577     0.025834813     0.025835017 -7.8734707E-004
      0.61000000    -0.020734398    -0.020841862     0.051669875     0.051671498 -3.1407575E-003
      0.91500000    -0.020613111    -0.020850343     0.077505455     0.077510908 -7.0345113E-003
       1.2200000    -0.020444534    -0.020861535      0.10334187      0.10335471    -0.012426307
       1.5250000    -0.020228825    -0.020874787      0.12917949      0.12920438    -0.019258097
       1.8300000    -0.019966249    -0.020889300      0.15501879      0.15506137    -0.027457222
       2.1350000    -0.019657241    -0.020904153      0.18086033      0.18092716    -0.036937827
       2.4400000    -0.019302468    -0.020918336      0.20670477      0.20680322    -0.047602516
       2.7450000    -0.018902904    -0.020930787      0.23255293      0.23269101    -0.059344206
       3.0500000    -0.018459901    -0.020940422      0.25840572      0.25859203    -0.072048141
       3.3550000    -0.017975270    -0.020946180      0.28426423      0.28450775    -0.085594009
       3.6600000    -0.017451354    -0.020947054      0.31012964      0.31043964    -0.099858132
       3.9650000    -0.016891097    -0.020942130      0.33600331      0.33638920     -0.11471566
       4.2700000    -0.016298099    -0.020930619      0.36188670      0.36235792     -0.13004272
       4.5750000    -0.015676667    -0.020911889      0.38778139      0.38834729     -0.14571855
       4.8800000    -0.015031839    -0.020885487      0.41368909      0.41435881     -0.16162741
       5.1850000    -0.014369399    -0.020851164      0.43961158      0.44039398     -0.17766045
       5.4900000    -0.013695868    -0.020808888      0.46555072      0.46645432     -0.19371735
       5.7950000    -0.013018471    -0.020758857      0.49150844      0.49254134     -0.20970780
       6.1000000    -0.012345094    -0.020701501      0.51748672      0.51865656     -0.22555269
       6.4050000    -0.011684208    -0.020637487      0.54348754      0.54480152     -0.24118517
       6.7100000    -0.011044782    -0.020567708      0.56951288      0.57097774     -0.25655143
       7.0150000    -0.010436174    -0.020493277      0.59556474      0.59718676     -0.27161129
       7.3200000 -9.8680116E-003    -0.020415510      0.62164503      0.62343015     -0.28633851
       7.6250000 -9.3500555E-003    -0.020335910      0.64775564      0.64970945     -0.30072099
       7.9300000 -8.8920539E-003    -0.020256144      0.67389837      0.67602623     -0.31476065
       8.2350000 -8.5035902E-003    -0.020178021      0.70007494      0.70238207     -0.32847322
       8.5400000 -8.1939247E-003    -0.020103464      0.72628695      0.72877855     -0.34188783
       8.8450000 -7.9718356E-003    -0.020034482      0.75253590      0.75521727     -0.35504639
       9.1500000 -7.8454593E-003    -0.019973146      0.77882315      0.78169983     -0.36800294
       9.4550000 -7.8221346E-003    -0.019921555      0.80514992      0.80822784     -0.38082270
       9.7600000 -7.9082522E-003    -0.019881811      0.83151729      0.83480292     -0.39358119
       10.065000 -8.1091134E-003    -0.019855990      0.85792620      0.86142672     -0.40636311
       10.370000 -8.4287982E-003    -0.019846114      0.88437741      0.88810087     -0.41926115
       10.675000 -8.8700482E-003    -0.019854127      0.91087157      0.91482705     -0.43237478
       10.980000 -9.4341646E-003    -0.019881869      0.93740915      0.94160692     -0.44580886
       11.285000    -0.010120925    -0.019931057      0.96399050      0.96844216     -0.45967228
       11.590000    -0.010928517    -0.020003261      0.99061582      0.99533447     -0.47407648
       11.895000    -0.011853513    -0.020099891       1.0172852       1.0222856     -0.48913394
       12.200000    -0.012890840    -0.020222177       1.0439987       1.0492972     -0.50495666
       12.505000    -0.014033807    -0.020371163       1.0707561       1.0763710     -0.52165458
       12.810000    -0.015274133    -0.020547695       1.0975573       1.1035089     -0.53933398
       13.115000    -0.016602045    -0.020752416       1.1244021       1.1307125     -0.55809598
       13.420000    -0.018006371    -0.020985762       1.1512902       1.1579837     -0.57803493
       13.725000    -0.019474681    -0.021247969       1.1782214       1.1853243     -0.59923692
       14.030000    -0.020993456    -0.021539070       1.2051955       1.2127360     -0.62177837
       14.335000    -0.022548290    -0.021858909       1.2322124       1.2402208     -0.64572466
       14.640000    -0.024124112    -0.022207150       1.2592720       1.2677804     -0.67112890
       14.945000    -0.025705437    -0.022583292       1.2863744       1.2954168     -0.69803081
       15.250000    -0.027276634    -0.022986686       1.3135199       1.3231319     -0.72645584
       15.555000    -0.028822204    -0.023416554       1.3407089       1.3509275     -0.75641437
       15.860000    -0.030327069    -0.023872012       1.3679420       1.3788056     -0.78790118
       16.165000    -0.031776859    -0.024352092       1.3952201       1.4067682     -0.82089518
       16.470000    -0.033158195    -0.024855769       1.4225444       1.4348172     -0.85535933
       16.775000    -0.034458950    -0.025381981       1.4499162       1.4629546     -0.89124083
       17.080000    -0.035668493    -0.025929655       1.4773373       1.4911825     -0.92847159
       17.385000    -0.036777900    -0.026497730       1.5048097       1.5195028     -0.96696894
       17.690000    -0.037780128    -0.027085172       1.5323359       1.5479178      -1.0066366
       17.995000    -0.038670141    -0.027690997       1.5599183       1.5764293      -1.0473659
       18.300000    -0.039444991    -0.028314276       1.5875602       1.6050397      -1.0890370
       18.605000    -0.040103837    -0.028954150       1.6152647       1.6337509      -1.1315208
       18.910000    -0.040647909    -0.029609823       1.6430355       1.6625653      -1.1746802
       19.215000    -0.041080411    -0.030280566       1.6708763       1.6914849      -1.2183719
       19.520000    -0.041406360    -0.030965699       1.6987915       1.7205120      -1.2624484
       19.825000    -0.041632344    -0.031664576       1.7267853       1.7496490      -1.3067593
       20.130000    -0.041766321    -0.032376556       1.7548623       1.7788979      -1.3511530
       20.435000    -0.041817202    -0.033100974       1.7830273       1.8082612      -1.3954780
       20.740000    -0.041794460    -0.033837097       1.8112854       1.8377413      -1.4395839
       21.045000    -0.041707814    -0.034584078       1.8396417       1.8673404      -1.4833222
       21.350000    -0.041566716    -0.035340902       1.8681015       1.8970610      -1.5265465
       21.655000    -0.041379902    -0.036106325       1.8966703       1.9269056      -1.5691129
       21.960000    -0.041154937    -0.036878812       1.9253537       1.9568766      -1.6108789
       22.265000    -0.040897752    -0.037656466       1.9541576       1.9869765      -1.6517027
       22.570000    -0.040612221    -0.038436952       1.9830880       2.0172079      -1.6914420
       22.875000    -0.040299764    -0.039217429       2.0121514       2.0475734      -1.7299517
       23.180000    -0.039959011    -0.039994464       2.0413543       2.0780756      -1.7670822
       23.485000    -0.039585527    -0.040763959       2.0707038       2.1087172      -1.8026763
       23.790000    -0.039171621    -0.041521070       2.1002075       2.1395008      -1.8365664
       24.095000    -0.038706255    -0.042260130       2.1298732       2.1704293      -1.8685720
       24.400000    -0.038175060    -0.042974569       2.1597099       2.2015054      -1.8984960
       24.705000    -0.037560482    -0.043656842       2.1897267       2.2327319      -1.9261222
       25.010000    -0.036842079    -0.044298354       2.2199341       2.2641117      -1.9512126
       25.315000    -0.035996994    -0.044889397       2.2503431       2.2956478      -1.9735050
       25.620000    -0.035000617    -0.045419081       2.2809659       2.3273431      -1.9927121
       25.925000    -0.033827571    -0.045875286       2.3118156       2.3592007      -2.0085212
       26.230000    -0.032452855    -0.046244613       2.3429066       2.3912235      -2.0205947
       26.535000    -0.030853572    -0.046512362       2.3742541       2.4234148      -2.0285739
       26.840000    -0.029011012    -0.046662520       2.4058742       2.4557777      -2.0320836
       27.145000    -0.026913430    -0.046677789       2.4377842       2.4883154      -2.0307409
       27.450000    -0.024559624    -0.046539655       2.4700013       2.5210312      -2.0241673
       27.755000    -0.021963519    -0.046228518       2.5025432       2.5539284      -2.0120056
       28.060000    -0.019160008    -0.045723906       2.5354269       2.5870105      -1.9939434
       28.365000    -0.016212234    -0.045004828       2.5686680       2.6202808      -1.9697444
       28.670000    -0.013220427    -0.044050278       2.6022792       2.6537430      -1.9392894
       28.975000    -0.010332091    -0.042840003       2.6362692       2.6874005      -1.9026306
       29.280000 -7.7526480E-003    -0.041355597       2.6706399       2.7212570      -1.8600609
       29.585000 -5.7542320E-003    -0.039582057       2.7053843       2.7553162      -1.8122016
       29.890000 -4.6775014E-003    -0.037509972       2.7404822       2.7895820      -1.7601105
       30.195000 -4.9159541E-003    -0.035138516       2.7758963       2.8240580      -1.7054084
       30.500000 -6.8622358E-003    -0.032479459       2.8115672       2.8587483      -1.6504126

Table series: Data for wavelength : 0.587562 µm.
   Y Angle (deg)       Tan Shift       Sag Shift     Real Height     Ref. Height      Distortion
  --------------  --------------  --------------  --------------  --------------  --------------
      0.00000000 -9.6424710E-005 -9.6424710E-005      0.00000000      0.00000000      0.00000000
      0.30500000 -8.1717520E-005 -1.0237669E-004     0.025872377     0.025872607 -8.9028453E-004
      0.61000000 -4.2609667E-005 -1.2009673E-004     0.051744843     0.051746681 -3.5516510E-003
      0.91500000  2.1383820E-005 -1.4918137E-004     0.077617512     0.077623688 -7.9558282E-003
       1.2200000  1.1105447E-004 -1.8897206E-004      0.10349055      0.10350510    -0.014056324
       1.5250000  2.2744076E-004 -2.3857546E-004      0.12936418      0.12939237    -0.021789347
       1.8300000  3.7174750E-004 -2.9689087E-004      0.15523873      0.15528699    -0.031075067
       2.1350000  5.4524723E-004 -3.6264395E-004      0.18111464      0.18119041    -0.041819169
       2.4400000  7.4916744E-004 -4.3442540E-004      0.20699246      0.20710412    -0.053914682
       2.7450000  9.8456804E-004 -5.1073350E-004      0.23287289      0.23302958    -0.067244009
       3.0500000  1.2522139E-003 -5.9001912E-004      0.25875676      0.25896829    -0.081681137
       3.3550000  1.5524476E-003 -6.7073158E-004      0.28464507      0.28492171    -0.097093948
       3.6600000  1.8850678E-003 -7.5136423E-004      0.31053895      0.31089134     -0.11334660
       3.9650000  2.2492184E-003 -8.3049821E-004      0.33643970      0.33687866     -0.13030188
       4.2700000  2.6432923E-003 -9.0684324E-004      0.36234873      0.36288516     -0.14782360
       4.5750000  3.0648548E-003 -9.7927438E-004      0.38826761      0.38891234     -0.16577876
       4.8800000  3.5105900E-003 -1.0468638E-003      0.41419801      0.41496171     -0.18403973
       5.1850000  3.9762710E-003 -1.1089071E-003      0.44014173      0.44103477     -0.20248612
       5.4900000  4.4567572E-003 -1.1649432E-003      0.46610063      0.46713302     -0.22100659
       5.7950000  4.9460182E-003 -1.2147686E-003      0.49207665      0.49325800     -0.23950035
       6.1000000  5.4371831E-003 -1.2584444E-003      0.51807177      0.51941122     -0.25787844
       6.4050000  5.9226160E-003 -1.2962979E-003      0.54408802      0.54559421     -0.27606477
       6.7100000  6.3940125E-003 -1.3289182E-003      0.57012742      0.57180852     -0.29399698
       7.0150000  6.8425182E-003 -1.3571456E-003      0.59619198      0.59805568     -0.31162694
       7.3200000  7.2588632E-003 -1.3820576E-003      0.62228367      0.62433725     -0.32892114
       7.6250000  7.6335117E-003 -1.4049491E-003      0.64840443      0.65065479     -0.34586075
       7.9300000  7.9568214E-003 -1.4273099E-003      0.67455610      0.67700986     -0.36244156
       8.2350000  8.2192119E-003 -1.4507993E-003      0.70074045      0.70340405     -0.37867367
       8.5400000  8.4113359E-003 -1.4772181E-003      0.72695914      0.72983894     -0.39458102
       8.8450000  8.5242528E-003 -1.5084792E-003      0.75321371      0.75631613     -0.41020078
       9.1500000  8.5496006E-003 -1.5465773E-003      0.77950560      0.78283722     -0.42558255
       9.4550000  8.4797630E-003 -1.5935585E-003      0.80583607      0.80940382     -0.44078745
       9.7600000  8.3080295E-003 -1.6514892E-003      0.83220628      0.83601758     -0.45588713
       10.065000  8.0287463E-003 -1.7224267E-003      0.85861721      0.86268011     -0.47096263
       10.370000  7.6374543E-003 -1.8083902E-003      0.88506971      0.88939308     -0.48610313
       10.675000  7.1310133E-003 -1.9113334E-003      0.91156448      0.91615814     -0.50140469
       10.980000  6.5077081E-003 -2.0331193E-003      0.93810208      0.94297697     -0.51696889
       11.285000  5.7673360E-003 -2.1754962E-003      0.96468291      0.96985126     -0.53290136
       11.590000  4.9112752E-003 -2.3400772E-003      0.99130727      0.99678270     -0.54931032
       11.895000  3.9425119E-003 -2.5283215E-003       1.0179753       1.0237730     -0.56630509
       12.200000  2.8656743E-003 -2.7415186E-003       1.0446872       1.0508239     -0.58399448
       12.505000  1.6870010E-003 -2.9807764E-003       1.0714428       1.0779372     -0.60248530
       12.810000  4.1431692E-004 -3.2470113E-003       1.0982420       1.1051145     -0.62188074
       13.115000 -9.4306636E-004 -3.5409422E-003       1.1250848       1.1323577     -0.64227884
       13.420000 -2.3744425E-003 -3.8630885E-003       1.1519711       1.1596686     -0.66377097
       13.725000 -3.8678531E-003 -4.2137702E-003       1.1789006       1.1870489     -0.68644035
       14.030000 -5.4102577E-003 -4.5931130E-003       1.2058732       1.2145006     -0.71036063
       14.335000 -6.9877323E-003 -5.0010558E-003       1.2328891       1.2420253     -0.73559465
       14.640000 -8.5856948E-003 -5.4373620E-003       1.2599481       1.2696251     -0.76219316
       14.945000    -0.010189153 -5.9016335E-003       1.2870505       1.2973017     -0.79019383
       15.250000    -0.011782971 -6.3933283E-003       1.3141967       1.3250571     -0.81962037
       15.555000    -0.013352147 -6.9117795E-003       1.3413870       1.3528931     -0.85048178
       15.860000    -0.014882098 -7.4562172E-003       1.3686224       1.3808118     -0.88277195
       16.165000    -0.016358946 -8.0257915E-003       1.3959037       1.4088151     -0.91646931
       16.470000    -0.017769792 -8.6195957E-003       1.4232322       1.4369049     -0.95153690
       16.775000    -0.019102977 -9.2366909E-003       1.4506094       1.4650832     -0.98792256
       17.080000    -0.020348317 -9.8761281E-003       1.4780370       1.4933522      -1.0255594
       17.385000    -0.021497310    -0.010536971       1.5055171       1.5217137      -1.0643667
       17.690000    -0.022543299    -0.011218312       1.5330522       1.5501700      -1.1042506
       17.995000    -0.023481595    -0.011919294       1.5606450       1.5787231      -1.1451056
       18.300000    -0.024309544    -0.012639113       1.5882985       1.6073750      -1.1868156
       18.605000    -0.025026539    -0.013377034       1.6160159       1.6361281      -1.2292557
       18.910000    -0.025633975    -0.014132386       1.6438009       1.6649843      -1.2722938
       19.215000    -0.026135141    -0.014904556       1.6716572       1.6939461      -1.3157921
       19.520000    -0.026535045    -0.015692982       1.6995892       1.7230154      -1.3596088
       19.825000    -0.026840172    -0.016497130       1.7276009       1.7521947      -1.4035999
       20.130000    -0.027058260    -0.017316468       1.7556971       1.7814862      -1.4476201
       20.435000    -0.027197881    -0.018150432       1.7838824       1.8108923      -1.4915248
       20.740000    -0.027268038    -0.018998387       1.8121617       1.8404152      -1.5351702
       21.045000    -0.027277842    -0.019859578       1.8405401       1.8700574      -1.5784149
       21.350000    -0.027235989    -0.020733075       1.8690229       1.8998213      -1.6211191
       21.655000    -0.027150306    -0.021617715       1.8976154       1.9297093      -1.6631453
       21.960000    -0.027027287    -0.022512038       1.9263232       1.9597239      -1.7043574
       22.265000    -0.026871628    -0.023414214       1.9551520       1.9898676      -1.7446195
       22.570000    -0.026685793    -0.024321977       1.9841078       2.0201430      -1.7837950
       22.875000    -0.026469616    -0.025232545       2.0131969       2.0505527      -1.8217437
       23.180000    -0.026219956    -0.026142543       2.0424258       2.0810992      -1.8583207
       23.485000    -0.025930416    -0.027047930       2.0718014       2.1117854      -1.8933727
       23.790000    -0.025591140    -0.027943918       2.1013313       2.1426138      -1.9267360
       24.095000    -0.025188707    -0.028824893       2.1310234       2.1735873      -1.9582329
       24.400000    -0.024706129    -0.029684344       2.1608863       2.2047086      -1.9876691
       24.705000    -0.024122972    -0.030514783       2.1909293       2.2359806      -2.0148303
       25.010000    -0.023415613    -0.031307678       2.2211628       2.2674061      -2.0394803
       25.315000    -0.022557671    -0.032053387       2.2515977       2.2989880      -2.0613582
       25.620000    -0.021520613    -0.032741090       2.2822462       2.3307295      -2.0801775
       25.925000    -0.020274649    -0.033358741       2.3131214       2.3626334      -2.0956255
       26.230000    -0.018789796    -0.033893019       2.3442377       2.3947028      -2.1073646
       26.535000    -0.017037469    -0.034329298       2.3756103       2.4269409      -2.1150347
       26.840000    -0.014992425    -0.034651639       2.4072555       2.4593509      -2.1182585
       27.145000    -0.012635348    -0.034842804       2.4391904       2.4919359      -2.1166489
       27.450000 -9.9562048E-003    -0.034884314       2.4714327       2.5246993      -2.1098213
       27.755000 -6.9585720E-003    -0.034756564       2.5040002       2.5576444      -2.0974088
       28.060000 -3.6651677E-003    -0.034439012       2.5369102       2.5907746      -2.0790847
       28.365000 -1.2480717E-004    -0.033910488       2.5701790       2.6240934      -2.0545914
       28.670000  3.5790861E-003    -0.033149653       2.6038202       2.6576042      -2.0237794
       28.975000  7.3185518E-003    -0.032135684       2.6378436       2.6913107      -1.9866572
       29.280000     0.010910497    -0.030849252       2.6722531       2.7252165      -1.9434562
       29.585000     0.014107498    -0.029273922       2.7070440       2.7593253      -1.8947118
       29.890000     0.016594651    -0.027398107       2.7421998       2.7936409      -1.8413637
       30.195000     0.018002174    -0.025217748       2.7776879       2.8281671      -1.7848728
       30.500000     0.017952792    -0.022739873       2.8134556       2.8629079      -1.7273444

Table series: Data for wavelength : 0.656273 µm.
   Y Angle (deg)       Tan Shift       Sag Shift     Real Height     Ref. Height      Distortion
  --------------  --------------  --------------  --------------  --------------  --------------
      0.00000000     0.010101160     0.010101160      0.00000000      0.00000000      0.00000000
      0.30500000     0.010110743     0.010093399     0.025890128     0.025890369 -9.3332152E-004
      0.61000000     0.010134691     0.010070270     0.051780278     0.051782206 -3.7234350E-003
      0.91500000     0.010173729     0.010032223     0.077670499     0.077676978 -8.3409849E-003
       1.2200000     0.010229044  9.9799969E-003      0.10356089      0.10357615    -0.014737698
       1.5250000     0.010302208  9.9145928E-003      0.12945162      0.12948120    -0.022847344
       1.8300000     0.010395082  9.8372466E-003      0.15534296      0.15539359    -0.032587044
       2.1350000     0.010509702  9.7493916E-003      0.18123528      0.18131480    -0.043858893
       2.4400000     0.010648138  9.6526164E-003      0.20712910      0.20724630    -0.056551855
       2.7450000     0.010812356  9.5486189E-003      0.23302506      0.23318956    -0.070543873
       3.0500000     0.011004061  9.4391577E-003      0.25892398      0.25914608    -0.085704162
       3.3550000     0.011224553  9.3260018E-003      0.28482679      0.28511732     -0.10189560
       3.6600000     0.011474577  9.2108815E-003      0.31073463      0.31110477     -0.11897719
       3.9650000     0.011754199  9.0954414E-003      0.33664874      0.33710993     -0.13680651
       4.2700000     0.012062691  8.9811955E-003      0.36257055      0.36313429     -0.15524213
       4.5750000     0.012398440  8.8694878E-003      0.38850160      0.38917934     -0.17414591
       4.8800000     0.012758881  8.7614578E-003      0.41444356      0.41524659     -0.19338518
       5.1850000     0.013140468  8.6580118E-003      0.44039823      0.44133754     -0.21283471
       5.4900000     0.013538655  8.5598013E-003      0.46636746      0.46745372     -0.23237852
       5.7950000     0.013947927  8.4672070E-003      0.49235321      0.49359663     -0.25191141
       6.1000000     0.014361844  8.3803313E-003      0.51835747      0.51976781     -0.27134027
       6.4050000     0.014773121  8.2989952E-003      0.54438227      0.54596878     -0.29058518
       6.7100000     0.015173728  8.2227434E-003      0.57042966      0.57220108     -0.30958016
       7.0150000     0.015555014  8.1508538E-003      0.59650165      0.59846626     -0.32827380
       7.3200000     0.015907845  8.0823531E-003      0.62260025      0.62476587     -0.34662953
       7.6250000     0.016222763  8.0160357E-003      0.64872739      0.65110148     -0.36462574
       7.9300000     0.016490151  7.9504877E-003      0.67488496      0.67747465     -0.38225568
       8.2350000     0.016700410  7.8841128E-003      0.70107474      0.70388695     -0.39952712
       8.5400000     0.016844131  7.8151612E-003      0.72729840      0.73033999     -0.41646187
       8.8450000     0.016912284  7.7417600E-003      0.75355754      0.75683536     -0.43309513
       9.1500000     0.016896387  7.6619441E-003      0.77985358      0.78337465     -0.44947469
       9.4550000     0.016788683  7.5736884E-003      0.80618784      0.80995950     -0.46566000
       9.7600000     0.016582306  7.4749386E-003      0.83256148      0.83659152     -0.48172114
       10.065000     0.016271431  7.3636426E-003      0.85897553      0.86327236     -0.49773762
       10.370000     0.015851422  7.2377795E-003      0.88543085      0.89000367     -0.51379722
       10.675000     0.015318952  7.0953884E-003      0.91192818      0.91678710     -0.52999463
       10.980000     0.014672118  6.9345941E-003      0.93846810      0.94362435     -0.54643006
       11.285000     0.013910528  6.7536316E-003      0.96505106      0.97051708     -0.56320784
       11.590000     0.013035367  6.5508673E-003      0.99167737      0.99746701     -0.58043488
       11.895000     0.012049434  6.3248183E-003       1.0183472       1.0244759     -0.59821919
       12.200000     0.010957169  6.0741684E-003       1.0450608       1.0515453     -0.61666832
       12.505000  9.7646222E-003  5.7977808E-003       1.0718180       1.0786772     -0.63588778
       12.810000  8.4794363E-003  5.4947077E-003       1.0986189       1.1058732     -0.65597950
       13.115000  7.1107406E-003  5.1641970E-003       1.1254633       1.1331351     -0.67704026
       13.420000  5.6690617E-003  4.8056948E-003       1.1523512       1.1604647     -0.69916021
       13.725000  4.1661797E-003  4.4188445E-003       1.1792825       1.1878639     -0.72242138
       14.030000  2.6149589E-003  4.0034828E-003       1.2062571       1.2153344     -0.74689631
       14.335000  1.0291480E-003  3.5596320E-003       1.2332750       1.2428780     -0.77264674
       14.640000 -5.7684521E-004  3.0874886E-003       1.2603363       1.2704967     -0.79972249
       14.945000 -2.1882015E-003  2.5874095E-003       1.2874412       1.2981923     -0.82816036
       15.250000 -3.7899565E-003  2.0598948E-003       1.3145902       1.3259668     -0.85798332
       15.555000 -5.3672788E-003  1.5055682E-003       1.3417838       1.3538219     -0.88919981
       15.860000 -6.9057545E-003  9.2515569E-004       1.3690227       1.3817598     -0.92180331
       16.165000 -8.3916700E-003  3.1946277E-004       1.3963080       1.4097823     -0.95577206
       16.470000 -9.8122877E-003 -3.1064932E-004       1.4236409       1.4378913     -0.99106912
       16.775000    -0.011156103 -9.6428719E-004       1.4510229       1.4660891      -1.0276426
       17.080000    -0.012413081 -1.6405482E-003       1.4784559       1.4943774      -1.0654260
       17.385000    -0.013574857 -2.3385416E-003       1.5059420       1.5227584      -1.1043394
       17.690000    -0.014634897 -3.0574077E-003       1.5334836       1.5512342      -1.1442900
       17.995000    -0.015588622 -3.7963329E-003       1.5610834       1.5798069      -1.1851735
       18.300000    -0.016433466 -4.5545610E-003       1.5887445       1.6084785      -1.2268753
       18.605000    -0.017168887 -5.3313999E-003       1.6164701       1.6372513      -1.2692724
       18.910000    -0.017796319 -6.1262219E-003       1.6442639       1.6661274      -1.3122346
       19.215000    -0.018319054 -6.9384579E-003       1.6721296       1.6951090      -1.3556263
       19.520000    -0.018742069 -7.7675853E-003       1.7000715       1.7241983      -1.3993082
       19.825000    -0.019071774 -8.6131085E-003       1.7280937       1.7533976      -1.4431387
       20.130000    -0.019315785 -9.4745317E-003       1.7562008       1.7827093      -1.4869754
       20.435000    -0.019482500    -0.010351325       1.7843976       1.8121355      -1.5306762
       20.740000    -0.019580692    -0.011242885       1.8126888       1.8416787      -1.5741003
       21.045000    -0.019619179    -0.012148484       1.8410796       1.8713412      -1.6171088
       21.350000    -0.019606297    -0.013067218       1.8695751       1.9011255      -1.6595650
       21.655000    -0.019549444    -0.013997946       1.8981807       1.9310341      -1.7013338
       21.960000    -0.019454608    -0.014939226       1.9269019       1.9610693      -1.7422818
       22.265000    -0.019325902    -0.015889246       1.9557444       1.9912337      -1.7822755
       22.570000    -0.019165125    -0.016845752       1.9847142       2.0215299      -1.8211803
       22.875000    -0.018971360    -0.017805971       2.0138174       2.0519604      -1.8588582
       23.180000    -0.018740623    -0.018766538       2.0430606       2.0825280      -1.8951660
       23.485000    -0.018465582    -0.019723415       2.0724508       2.1132352      -1.9299521
       23.790000    -0.018135347    -0.020671817       2.1019952       2.1440848      -1.9630540
       24.095000    -0.017735353    -0.021606133       2.1317020       2.1750795      -1.9942951
       24.400000    -0.017247358    -0.022519847       2.1615797       2.2062222      -2.0234820
       24.705000    -0.016649543    -0.023405473       2.1916376       2.2375156      -2.0504012
       25.010000    -0.015916767    -0.024254475       2.2218859       2.2689627      -2.0748167
       25.315000    -0.015020969    -0.025057206       2.2523357       2.3005663      -2.0964681
       25.620000    -0.013931756    -0.025802841       2.2829992       2.3323296      -2.1150688
       25.925000    -0.012617275    -0.026479328       2.3138895       2.3642554      -2.1303061
       26.230000    -0.011045232    -0.027073337       2.3450209       2.3963468      -2.1418418
       26.535000 -9.1844498E-003    -0.027570233       2.3764087       2.4286071      -2.1493153
       26.840000 -7.0067560E-003    -0.027954061       2.4080692       2.4610393      -2.1523479
       27.145000 -4.4895117E-003    -0.028207559       2.4400196       2.4936467      -2.1505510
       27.450000 -1.6188963E-003    -0.028312215       2.4722776       2.5264326      -2.1435371
       27.755000  1.6058427E-003    -0.028248370       2.5048611       2.5594003      -2.1309357
       28.060000  5.1669409E-003    -0.027995404       2.5377878       2.5925533      -2.1124144
       28.365000  9.0212418E-003    -0.027532027       2.5710739       2.6258949      -2.0877076
       28.670000     0.013091750    -0.026836720       2.6047335       2.6594287      -2.0566542
       28.975000     0.017257726    -0.025888390       2.6387768       2.6931583      -2.0192465
       29.280000     0.021344017    -0.024667311       2.6732085       2.7270874      -1.9756928
       29.585000     0.025111613    -0.023156464       2.7080248       2.7612196      -1.9264968
       29.890000     0.028253922    -0.021343410       2.7432104       2.7955587      -1.8725543
       30.195000     0.030408218    -0.019222850       2.7787347       2.8301087      -1.8152665
       30.500000     0.031200879    -0.016800028       2.8145472       2.8648733      -1.7566600
