Results for:	
File:	C:\Users\User\OneDrive - Massachusetts Institute of Technology\Documents\MIT\Grad School\Classes\2.156\Lens Project\Prime Lenses\US7643225.zmx
Title:	
Date:	11/7/2025 5:54:52 PM

0 message(s) in output.
3 series table(s) in output.

Table series: Data for wavelength : 0.486133 µm.
   Y Angle (deg)       Tan Shift       Sag Shift     Real Height     Ref. Height      Distortion
  --------------  --------------  --------------  --------------  --------------  --------------
      0.00000000 -9.5844970E-004 -9.5844970E-004      0.00000000      0.00000000      0.00000000
      0.33000000 -1.1206751E-003 -1.0181002E-003     0.021022091     0.021022367 -1.3127513E-003
      0.66000000 -1.5931652E-003 -1.1955159E-003     0.042043940     0.042046128 -5.2045756E-003
      0.99000000 -2.3541059E-003 -1.4861488E-003     0.063065402     0.063072679    -0.011537836
       1.3200000 -3.3686821E-003 -1.8826102E-003     0.084086521     0.084103416    -0.020088574
       1.6500000 -4.5910669E-003 -2.3749482E-003      0.10510761      0.10513974    -0.030554376
       1.9800000 -5.9669704E-003 -2.9510121E-003      0.12612933      0.12618304    -0.042564864
       2.3100000 -7.4365538E-003 -3.5968873E-003      0.14715272      0.14723472    -0.055694305
       2.6400000 -8.9375007E-003 -4.2973750E-003      0.16817927      0.16829619    -0.069475787
       2.9700000    -0.010408048 -5.0364971E-003      0.18921088      0.18936885    -0.083416355
       3.3000000    -0.011789804 -5.7980004E-003      0.21024994      0.21045410    -0.097012504
       3.6300000    -0.013030216 -6.5658412E-003      0.23129920      0.23155337     -0.10976545
       3.9600000    -0.014084602 -7.3246322E-003      0.25236184      0.25266806     -0.12119565
       4.2900000    -0.014917683 -8.0600375E-003      0.27344131      0.27379959     -0.13085618
       4.6200000    -0.015504605 -8.7591069E-003      0.29454135      0.29494940     -0.13834454
       4.9500000    -0.015831475 -9.4105413E-003      0.31566586      0.31611889     -0.14331263
       5.2800000    -0.015895420    -0.010004889      0.33681882      0.33730952     -0.14547483
       5.6100000    -0.015704233    -0.010534671      0.35800425      0.35852272     -0.14461393
       5.9400000    -0.015275648    -0.010994442      0.37922606      0.37975994     -0.14058494
       6.2700000    -0.014636298    -0.011380788      0.40048800      0.40102263     -0.13331688
       6.6000000    -0.013820405    -0.011692265      0.42179359      0.42231224     -0.12281248
       6.9300000    -0.012868257    -0.011929298      0.44314604      0.44363025     -0.10914598
       7.2600000    -0.011824506    -0.012094028      0.46454821      0.46497813    -0.092459218
       7.5900000    -0.010736356    -0.012190132      0.48600253      0.48635735    -0.072955955
       7.9200000 -9.6516791E-003    -0.012222615      0.50751099      0.50776942    -0.050894808
       8.2500000 -8.6171075E-003    -0.012197579      0.52907516      0.52921583    -0.026580821
       8.5800000 -7.6761851E-003    -0.012121987      0.55069613      0.55069809 -3.5592133E-004
       8.9100000 -6.8676194E-003    -0.012003415      0.57237457      0.57221772     0.027411572
       9.2400000 -6.2237112E-003    -0.011849806      0.59411077      0.59377625     0.056338154
       9.5700000 -5.7690374E-003    -0.011669236      0.61590466      0.61537521     0.086036830
       9.9000000 -5.5194134E-003    -0.011469684      0.63775593      0.63701617      0.11612903
       10.230000 -5.4812468E-003    -0.011258829      0.65966406      0.65870067      0.14625644
       10.560000 -5.6512641E-003    -0.011043863      0.68162849      0.68043030      0.17609250
       10.890000 -6.0166623E-003    -0.010831336      0.70364865      0.70220665      0.20535308
       11.220000 -6.5556732E-003    -0.010627029      0.72572414      0.72403131      0.23380614
       11.550000 -7.2385163E-003    -0.010435861      0.74785480      0.74590589      0.26127990
       11.880000 -8.0286917E-003    -0.010261825      0.77004085      0.76783204      0.28766916
       12.210000 -8.8845465E-003    -0.010107971      0.79228301      0.78981138      0.31293945
       12.540000 -9.7610346E-003 -9.9764034E-003      0.81458254      0.81184557      0.33712865
       12.870000    -0.010611580 -9.8683266E-003      0.83694135      0.83393630      0.36034591
       13.200000    -0.011389959 -9.7841048E-003      0.85936206      0.85608524      0.38276761
       13.530000    -0.012052110 -9.7233488E-003      0.88184795      0.87829411      0.40463028
       13.860000    -0.012557818 -9.6850178E-003      0.90440301      0.90056462      0.42622062
       14.190000    -0.012872199 -9.6675316E-003      0.92703184      0.92289852      0.44786256
       14.520000    -0.012966957 -9.6688866E-003      0.94973954      0.94529757      0.46990183
       14.850000    -0.012821397 -9.6867699E-003      0.97253160      0.96776354      0.49268825
       15.180000    -0.012423174 -9.7186659E-003      0.99541368      0.99029823      0.51655630
       15.510000    -0.011768792 -9.7619519E-003       1.0183914       1.0129035      0.54180453
       15.840000    -0.010863849 -9.8139784E-003       1.0414702       1.0355811      0.56867438
       16.170000 -9.7230532E-003 -9.8721317E-003       1.0646547       1.0583329      0.59732919
       16.500000 -8.3699934E-003 -9.9338796E-003       1.0879488       1.0811609      0.62783414
       16.830000 -6.8366723E-003 -9.9967990E-003       1.1113553       1.1040669      0.66013776
       17.160000 -5.1627801E-003    -0.010058588       1.1348752       1.1270529      0.69405607
       17.490000 -3.3946825E-003    -0.010117068       1.1585081       1.1501207      0.72925988
       17.820000 -1.5840917E-003    -0.010170170       1.1822511       1.1732725      0.76526642
       18.150000  2.1361348E-004    -0.010215931       1.2060994       1.1965101      0.80143601
       18.480000  1.9414347E-003    -0.010252477       1.2300454       1.2198356      0.83697467
       18.810000  3.5431619E-003    -0.010278029       1.2540792       1.2432512      0.87094366
       19.140000  4.9660870E-003    -0.010290917       1.2781884       1.2667587      0.90227672
       19.470000  6.1639101E-003    -0.010289615       1.3023583       1.2903605      0.92980559
       19.800000  7.0996578E-003    -0.010272812       1.3265723       1.3140586      0.95229414
       20.130000  7.7483651E-003    -0.010239503       1.3508120       1.3378551      0.96848108
       20.460000  8.0992270E-003    -0.010189124       1.3750584       1.3617523      0.97713041
       20.790000  8.1569123E-003    -0.010121702       1.3992925       1.3857525      0.97708813
       21.120000  7.9417718E-003    -0.010038040       1.4234960       1.4098578      0.96734270
       21.450000  7.4887693E-003 -9.9398951E-003       1.4476526       1.4340707      0.94708600
       21.780000  6.8451048E-003 -9.8301490E-003       1.4717489       1.4583934      0.91577072
       22.110000  6.0666739E-003 -9.7129308E-003       1.4957757       1.4828283      0.87315942
       22.440000  5.2136724E-003 -9.5936717E-003       1.5197287       1.5073778      0.81936089
       22.770000  4.3457856E-003 -9.4790561E-003       1.5436090       1.5320444      0.75484965
       23.100000  3.5174690E-003 -9.3768462E-003       1.5674242       1.5568305      0.68046583
       23.430000  2.7738137E-003 -9.2955637E-003       1.5911879       1.5817387      0.59739427
       23.760000  2.1474158E-003 -9.2440260E-003       1.6149199       1.6067716      0.50712378
       24.090000  1.6565380E-003 -9.2307495E-003       1.6386453       1.6319317      0.41138936
       24.420000  1.3047047E-003 -9.2632507E-003       1.6623940       1.6572218      0.31210210
       24.750000  1.0817214E-003 -9.3472879E-003       1.6861995       1.6826445      0.21127239
       25.080000  9.6598795E-004 -9.4860991E-003       1.7100975       1.7082025      0.11093271
       25.410000  9.2787219E-004 -9.6796935E-003       1.7341253       1.7338987     0.013065724
       25.740000  9.3384871E-004 -9.9242546E-003       1.7583201       1.7597359    -0.080457279
       26.070000  9.5106318E-004    -0.010211706       1.7827184       1.7857170     -0.16792397
       26.400000  9.5197206E-004    -0.010529484       1.8073550       1.8118450     -0.24781211
       26.730000  9.1872297E-004    -0.010860539       1.8322628       1.8381228     -0.31880306
       27.060000  8.4699193E-004    -0.011183610       1.8574723       1.8645534     -0.37977749
       27.390000  7.4908736E-004    -0.011473754       1.8830121       1.8911401     -0.42979339
       27.720000  6.5625914E-004    -0.011703178       1.9089093       1.9178859     -0.46804711
       28.050000  6.2029161E-004    -0.011842350       1.9351903       1.9447941     -0.49381779
       28.380000  7.1455535E-004    -0.011861419       1.9618825       1.9718679     -0.50639563
       28.710000  1.0346539E-003    -0.011731929       1.9890154       1.9991108     -0.50499426
       29.040000  1.6985071E-003    -0.011428829       2.0166235       2.0265261     -0.48864786
       29.370000  2.8450267E-003    -0.010932750       2.0447485       2.0541173     -0.45609437
       29.700000  4.6293434E-003    -0.010232487       2.0734428       2.0818879     -0.40564847
       30.030000  7.2107635E-003 -9.3276158E-003       2.1027722       2.1098416     -0.33507096
       30.360000     0.010727314 -8.2310802E-003       2.1328200       2.1379821     -0.24144663
       30.690000     0.015248106 -6.9715910E-003       2.1636899       2.1663131     -0.12108933
       31.020000     0.020692514 -5.5955945E-003       2.1955079       2.1948385     0.030499294
       31.350000     0.026704955 -4.1685780E-003       2.2284224       2.2235621      0.21858392
       31.680000     0.032479768 -2.7754693E-003       2.2626023       2.2524880      0.44902556
       32.010000     0.036549642 -1.5199142E-003       2.2982295       2.2816203      0.72795517
       32.340000     0.036594510 -5.2221985E-004       2.3354888       2.3109631       1.0612759
       32.670000     0.029402946  8.4314381E-005       2.3745523       2.3405207       1.4540152
       33.000000     0.011203290  1.5916174E-004       2.4155609       2.3702975       1.9096086

Table series: Data for wavelength : 0.587562 µm.
   Y Angle (deg)       Tan Shift       Sag Shift     Real Height     Ref. Height      Distortion
  --------------  --------------  --------------  --------------  --------------  --------------
      0.00000000     0.013636628     0.013636628      0.00000000      0.00000000      0.00000000
      0.33000000     0.013466674     0.013574338     0.021034604     0.021034894 -1.3790762E-003
      0.66000000     0.012972049     0.013389048     0.042068882     0.042071183 -5.4695439E-003
      0.99000000     0.012175251     0.013085438     0.063102607     0.063110264    -0.012132782
       1.3200000     0.011112180     0.012671107     0.084135740     0.084153533    -0.021143223
       1.6500000  9.8300899E-003     0.012156295      0.10516852      0.10520239    -0.032196267
       1.9800000  8.3849617E-003     0.011553500      0.12620152      0.12625823    -0.044918830
       2.3100000  6.8384985E-003     0.010877035      0.14723571      0.14732246    -0.058882019
       2.6400000  5.2549646E-003     0.010142534      0.16827251      0.16839648    -0.073615373
       2.9700000  3.6980683E-003  9.3664325E-003      0.18931377      0.18948169    -0.088622066
       3.3000000  2.2280679E-003  8.5654496E-003      0.21036178      0.21057951     -0.10339445
       3.6300000  8.9923860E-004  7.7560902E-003      0.23141928      0.23169135     -0.11742937
       3.9600000 -2.4220235E-004  6.9541872E-003      0.25248934      0.25281862     -0.13024273
       4.2900000 -1.1596638E-003  6.1744960E-003      0.27357541      0.27396275     -0.14138284
       4.6200000 -1.8272215E-003  5.4303534E-003      0.29468116      0.29512515     -0.15044222
       4.9500000 -2.2301524E-003  4.7334051E-003      0.31581045      0.31630727     -0.15706762
       5.2800000 -2.3649908E-003  4.0934066E-003      0.33696724      0.33751053     -0.16096798
       5.6100000 -2.2391576E-003  3.5180943E-003      0.35815550      0.35873637     -0.16192033
       5.9400000 -1.8702133E-003  3.0131261E-003      0.37937912      0.37998624     -0.15977360
       6.2700000 -1.2847889E-003  2.5820840E-003      0.40064185      0.40126160     -0.15445025
       6.6000000 -5.1724800E-004  2.2265349E-003      0.42194718      0.42256390     -0.14594599
       6.9300000  3.9186980E-004  1.9461401E-003      0.44329833      0.44389461     -0.13432750
       7.2600000  1.3975748E-003  1.7388074E-003      0.46469816      0.46525520     -0.11972843
       7.5900000  2.4522727E-003  1.6008771E-003      0.48614912      0.48664717     -0.10234373
       7.9200000  3.5076764E-003  1.5273359E-003      0.50765323      0.50807200    -0.082422518
       8.2500000  4.5167313E-003  1.5120486E-003      0.52921209      0.52953119    -0.060259658
       8.5800000  5.4354893E-003  1.5480037E-003      0.55082685      0.55102625    -0.036186221
       8.9100000  6.2248714E-003  1.6275630E-003      0.57249824      0.57255870    -0.010559029
       9.2400000  6.8522504E-003  1.7427111E-003      0.59422662      0.59413007     0.016250487
       9.5700000  7.2927741E-003  1.8852970E-003      0.61601202      0.61574191     0.043867887
       9.9000000  7.5304075E-003  2.0472624E-003      0.63785422      0.63739576     0.071927512
       10.230000  7.5585751E-003  2.2208516E-003      0.65975284      0.65909319      0.10008417
       10.560000  7.3804293E-003  2.3987981E-003      0.68170740      0.68083577      0.12802439
       10.890000  7.0086883E-003  2.5744828E-003      0.70371751      0.70262509      0.15547693
       11.220000  6.4650588E-003  2.7420622E-003      0.72578289      0.72446275      0.18222217
       11.550000  5.7792678E-003  2.8965618E-003      0.74790353      0.74635038      0.20809998
       11.880000  4.9877527E-003  3.0339364E-003      0.77007982      0.76828958      0.23301574
       12.210000  4.1320769E-003  3.1510947E-003      0.79231261      0.79028202      0.25694424
       12.540000  3.2571525E-003  3.2458913E-003      0.81460331      0.81232935      0.27993099
       12.870000  2.4093587E-003  3.3170877E-003      0.83695398      0.83443324      0.30209086
       13.200000  1.6346445E-003  3.3642866E-003      0.85936735      0.85659538      0.32360379
       13.530000  9.7669845E-004  3.3878448E-003      0.88184683      0.87881748      0.34470759
       13.860000  4.7525528E-004  3.3887692E-003      0.90439648      0.90110126      0.36568778
       14.190000  1.6459476E-004  3.3686030E-003      0.92702097      0.92344847      0.38686463
       14.520000  7.2270983E-005  3.3293081E-003      0.94972544      0.94586087      0.40857776
       14.850000  2.1809363E-004  3.2731490E-003      0.97251540      0.96834022      0.43116855
       15.180000  6.1336930E-004  3.2025848E-003      0.99539650      0.99088835      0.45496096
       15.510000  1.2604020E-003  3.1201724E-003       1.0183743       1.0135071      0.48024123
       15.840000  2.1522456E-003  3.0284855E-003       1.0414542       1.0361982      0.50723709
       16.170000  3.2727029E-003  2.9300502E-003       1.0646407       1.0589636      0.53609725
       16.500000  4.5965705E-003  2.8272999E-003       1.0879376       1.0818052      0.56687186
       16.830000  6.0901372E-003  2.7225466E-003       1.1113476       1.1047248      0.59949464
       17.160000  7.7119559E-003  2.6179687E-003       1.1348716       1.1277245      0.63376753
       17.490000  9.4139156E-003  2.5156114E-003       1.1585090       1.1508061      0.66934876
       17.820000     0.011142649  2.4173960E-003       1.1822569       1.1739716      0.70574497
       18.150000     0.012841305  2.3251318E-003       1.2061102       1.1972231      0.74230851
       18.480000     0.014451705  2.2405271E-003       1.2300615       1.2205625      0.77824057
       18.810000     0.015916865  2.1651905E-003       1.2541007       1.2439920      0.81260115
       19.140000     0.017183820  2.1006176E-003       1.2782156       1.2675136      0.84432659
       19.470000     0.018206634  2.0481560E-003       1.3023914       1.2911294      0.87225523
       19.800000     0.018949390  2.0089425E-003       1.3266116       1.3148416      0.89516149
       20.130000     0.019388903  1.9838109E-003       1.3508581       1.3386523      0.91179827
       20.460000     0.019516861  1.9731677E-003       1.3751123       1.3625638      0.92094676
       20.790000     0.019341063  1.9768392E-003       1.3993552       1.3865783      0.92147230
       21.120000     0.018885501  1.9939004E-003       1.4235690       1.4106980      0.91238359
       21.450000     0.018189130  2.0224983E-003       1.4477376       1.4349253      0.89289227
       21.780000     0.017303304  2.0596923E-003       1.4718481       1.4592624      0.86246853
       22.110000     0.016288042  2.1013358E-003       1.4958915       1.4837119      0.82088854
       22.440000     0.015207479  2.1420312E-003       1.5198636       1.5082760      0.76826906
       22.770000     0.014124933  2.1751844E-003       1.5437660       1.5329573      0.70508554
       23.100000     0.013098131  2.1931855E-003       1.5676059       1.5577582      0.63217094
       23.430000     0.012175073  2.1877294E-003       1.5913970       1.5826813      0.55069434
       23.760000     0.011390974  2.1502789E-003       1.6151587       1.6077291      0.46212027
       24.090000     0.010766527  2.0726571E-003       1.6389158       1.6329042      0.36815177
       24.420000     0.010307655  1.9477377E-003       1.6626975       1.6582093      0.27066163
       24.750000     0.010006698  1.7701905E-003       1.6865366       1.6836472      0.17161747
       25.080000  9.8449037E-003  1.5372294E-003       1.7104683       1.7092204     0.073006754
       25.410000  9.7959869E-003  1.2493029E-003       1.7345289       1.7349320    -0.023232778
       25.740000  9.8304333E-003  9.1067381E-004       1.7587549       1.7607846     -0.11527229
       26.070000  9.9202217E-003  5.2983699E-004       1.7831819       1.7867811     -0.20143722
       26.400000     0.010043603  1.1973457E-004       1.8078442       1.8129247     -0.28023638
       26.730000     0.010189604 -3.0226101E-004       1.8327739       1.8392181     -0.35037392
       27.060000     0.010361981 -7.1461790E-004       1.8580014       1.8656645     -0.41074358
       27.390000     0.010582430 -1.0921842E-003       1.8835549       1.8922670     -0.46040593
       27.720000     0.010893030 -1.4070059E-003       1.9094614       1.9190287     -0.49854885
       28.050000     0.011357976 -1.6294315E-003       1.9357477       1.9459529     -0.52443197
       28.380000     0.012064838 -1.7295085E-003       1.9624415       1.9730429     -0.53731557
       28.710000     0.013125468 -1.6786725E-003       1.9895729       2.0003020     -0.53637421
       29.040000     0.014676445 -1.4517208E-003       2.0171774       2.0277337     -0.52059600
       29.370000     0.016878233 -1.0290432E-003       2.0452975       2.0553413     -0.48866918
       29.700000     0.019911072 -3.9905830E-004       2.0739865       2.0831285     -0.43885953
       30.030000     0.023963785  4.3923478E-004       2.1033113       2.1110989     -0.36888568
       30.360000     0.029209382  1.4737207E-003       2.1333560       2.1392561     -0.27580417
       30.690000     0.035758519  2.6768252E-003       2.1642242       2.1676040     -0.15592254
       31.020000     0.043579402  4.0035788E-003       2.1960417       2.1961463 -4.7660674E-003
       31.350000     0.052371938  5.3903180E-003       2.2289557       2.2248871      0.18286976
       31.680000     0.061388782  6.7542507E-003       2.2631329       2.2538303      0.41274607
       32.010000     0.069213769  7.9940990E-003       2.2987520       2.2829799      0.69085663
       32.340000     0.073550922  8.9920286E-003       2.3359941       2.3123402       1.0229400
       32.670000     0.071154116  9.6171560E-003       2.3750266       2.3419154       1.4138502
       33.000000     0.058120719  9.7311235E-003       2.4159865       2.3717099       1.8668636

Table series: Data for wavelength : 0.656273 µm.
   Y Angle (deg)       Tan Shift       Sag Shift     Real Height     Ref. Height      Distortion
  --------------  --------------  --------------  --------------  --------------  --------------
      0.00000000     0.021438902     0.021438902      0.00000000      0.00000000      0.00000000
      0.33000000     0.021265201     0.021375331     0.021040961     0.021041257 -1.4076646E-003
      0.66000000     0.020759797     0.021186221     0.042081561     0.042083911 -5.5837568E-003
      0.99000000     0.019945535     0.020876318     0.063121536     0.063129357    -0.012389237
       1.3200000     0.018858871     0.020453333     0.084160812     0.084178992    -0.021597853
       1.6500000     0.017547792     0.019927651      0.10519959      0.10523422    -0.032904075
       1.9800000     0.016069143     0.019311951      0.12623842      0.12629643    -0.045933665
       2.3100000     0.014485583     0.018620752      0.14727823      0.14736703    -0.060256383
       2.6400000     0.012862373     0.017869913      0.16832041      0.16844742    -0.075400251
       2.9700000     0.011264215     0.017076104      0.18936679      0.18953902    -0.090866786
       3.3000000  9.7523230E-003     0.016256285      0.21041963      0.21064322     -0.10614656
       3.6300000  8.3818489E-003     0.015427198      0.23148163      0.23176144     -0.12073455
       3.9600000  7.1997889E-003     0.014604908      0.25255586      0.25289511     -0.13414467
       4.2900000  6.2433953E-003     0.013804384      0.27364574      0.27404563     -0.14592318
       4.6200000  5.5391259E-003     0.013039162      0.29475491      0.29521444     -0.15566045
       4.9500000  5.1021077E-003     0.012321065      0.31588722      0.31640296     -0.16300098
       5.2800000  4.9360827E-003     0.011660003      0.33704662      0.33761263     -0.16765131
       5.6100000  5.0337863E-003     0.011063843      0.35823706      0.35884490     -0.16938598
       5.9400000  5.3777054E-003     0.010538349      0.37946243      0.38010120     -0.16805123
       6.2700000  5.9411607E-003     0.010087185      0.40072646      0.40138299     -0.16356664
       6.6000000  6.6896598E-003  9.7119755E-003      0.42203265      0.42269173     -0.15592484
       6.9300000  7.5824698E-003  9.4124200E-003      0.44338422      0.44402890     -0.14518919
       7.2600000  8.5743602E-003  9.1864440E-003      0.46478401      0.46539596     -0.13148974
       7.5900000  9.6174638E-003  9.0303886E-003      0.48623450      0.48679440     -0.11501757
       7.9200000     0.010663206  8.9392265E-003      0.50773772      0.50822571    -0.096017620
       8.2500000     0.011664241  8.9067966E-003      0.52929528      0.52969139    -0.074780305
       8.5800000     0.012576346  8.9260515E-003      0.55090836      0.55119295    -0.051631945
       8.9100000     0.013360189  8.9893108E-003      0.57257771      0.57273192    -0.026924339
       9.2400000     0.013982924  9.0885118E-003      0.59430374      0.59430982 -1.0236546E-003
       9.5700000     0.014419521  9.2154540E-003      0.61608649      0.61592819     0.025701138
       9.9000000     0.014653813  9.3620296E-003      0.63792581      0.63758859     0.052889993
       10.230000     0.014679139  9.5204349E-003      0.65982136      0.65929258     0.080203405
       10.560000     0.014498612  9.6833581E-003      0.68177273      0.68104174      0.10733359
       10.890000     0.014124953  9.8441395E-003      0.70377956      0.70283766      0.13401488
       11.220000     0.013579905  9.9968995E-003      0.72584166      0.72468193      0.16003301
       11.550000     0.012893261     0.010136633      0.74795908      0.74657617      0.18523285
       11.880000     0.012101536     0.010259271      0.77013226      0.76852202      0.20952436
       12.210000     0.011246376     0.010361703      0.79236212      0.79052111      0.23288629
       12.540000     0.010372766     0.010441769      0.81465016      0.81257511      0.25536737
       12.870000  9.5271348E-003     0.010498220      0.83699847      0.83468568      0.27708489
       13.200000  8.7554434E-003     0.010530654      0.85940984      0.85685453      0.29822028
       13.530000  8.1013427E-003     0.010539423      0.88188773      0.87908335      0.31901182
       13.860000  7.6044669E-003     0.010525530      0.90443624      0.90137388      0.33974440
       14.190000  7.2989204E-003     0.010490517      0.92706007      0.92372784      0.36073662
       14.520000  7.2119968E-003     0.010436340      0.94976438      0.94614702      0.38232534
       14.850000  7.3631508E-003     0.010365258      0.97255467      0.96863318      0.40484818
       15.180000  7.7632320E-003     0.010279717      0.99543660      0.99118812      0.42862442
       15.510000  8.4139812E-003     0.010182260       1.0184157       1.0138137      0.45393481
       15.840000  9.3077804E-003     0.010075437       1.0414973       1.0365117      0.48100101
       16.170000     0.010427655  9.9617491E-003       1.0646859       1.0592840      0.50996522
       16.500000     0.011747528  9.8435931E-003       1.0879854       1.0821324      0.54087092
       16.830000     0.013232729  9.7232396E-003       1.1113981       1.1050590      0.57364520
       17.160000     0.014840798  9.6028179E-003       1.1349252       1.1280656      0.60808374
       17.490000     0.016522580  9.4843172E-003       1.1585658       1.1511542      0.64383910
       17.820000     0.018223683  9.3695960E-003       1.1823171       1.1743268      0.68041313
       18.150000     0.019886302  9.2603954E-003       1.2061738       1.1975853      0.71715450
       18.480000     0.021451439  9.1583506E-003       1.2301286       1.2209318      0.75326210
       18.810000     0.022861492  9.0649933E-003       1.2541714       1.2443684      0.78779520
       19.140000     0.024063155  8.9817402E-003       1.2782899       1.2678971      0.81969109
       19.470000     0.025010490  8.9098594E-003       1.3024694       1.2915200      0.84779086
       19.800000     0.025667972  8.8504100E-003       1.3266935       1.3152394      0.87087342
       20.130000     0.026013241  8.8041512E-003       1.3509441       1.3390573      0.88769779
       20.460000     0.026039241  8.7714208E-003       1.3752026       1.3629760      0.89705272
       20.790000     0.025755436  8.7519849E-003       1.3994504       1.3869977      0.89781209
       21.120000     0.025187839  8.7448691E-003       1.4236696       1.4111248      0.88899370
       21.450000     0.024377691  8.7481853E-003       1.4478444       1.4353594      0.86981813
       21.780000     0.023378790  8.7589739E-003       1.4719620       1.4597039      0.83976373
       22.110000     0.022253660  8.7730900E-003       1.4960135       1.4841608      0.79861322
       22.440000     0.021068883  8.7851600E-003       1.5199948       1.5087323      0.74648757
       22.770000     0.019890095  8.7886393E-003       1.5439076       1.5334211      0.68386349
       23.100000     0.018777147  8.7759949E-003       1.5677592       1.5582295      0.61157170
       23.430000     0.017779953  8.7390266E-003       1.5915631       1.5831601      0.53077535
       23.760000     0.016935429  8.6693307E-003       1.6153387       1.6082155      0.44292932
       24.090000     0.016265800  8.5588896E-003       1.6391106       1.6333982      0.34972362
       24.420000     0.015778406  8.4007595E-003       1.6629078       1.6587110      0.25301512
       24.750000     0.015466957  8.1898113E-003       1.6867628       1.6841565      0.15475351
       25.080000     0.015314114  7.9234717E-003       1.7107105       1.7097375     0.056907174
       25.410000     0.015295122  7.6024081E-003       1.7347869       1.7354568    -0.038605310
       25.740000     0.015382208  7.2311008E-003       1.7590280       1.7613173     -0.12997334
       26.070000     0.015549389  6.8182543E-003       1.7834693       1.7873217     -0.21553865
       26.400000     0.015777333  6.3770067E-003       1.8081447       1.8134731     -0.29382359
       26.730000     0.016057957  5.9249095E-003       1.8330862       1.8397745     -0.36354222
       27.060000     0.016398468  5.4836539E-003       1.8583237       1.8662289     -0.42359411
       27.390000     0.016824685  5.0785316E-003       1.8838855       1.8928395     -0.47304100
       27.720000     0.017383598  4.7376196E-003       1.9097988       1.9196093     -0.51106712
       28.050000     0.018145254  4.4906806E-003       1.9360902       1.9465417     -0.53692354
       28.380000     0.019204194  4.3677744E-003       1.9627876       1.9736398     -0.54985728
       28.710000     0.020680587  4.3975794E-003       1.9899217       2.0009072     -0.54902542
       29.040000     0.022720958  4.6054339E-003       2.0175280       2.0283471     -0.53339532
       29.370000     0.025497699  5.0111227E-003       2.0456497       2.0559631     -0.50163243
       29.700000     0.029205387  5.6264612E-003       2.0743405       2.0837587     -0.45197970
       30.030000     0.034050102  6.4527665E-003       2.1036679       2.1117375     -0.38213532
       30.360000     0.040225583  7.4783446E-003       2.1337160       2.1399033     -0.28914083
       30.690000     0.047867148  8.6761669E-003       2.1645889       2.1682598     -0.16929771
       31.020000     0.056971675     0.010001945       2.1964123       2.1968108    -0.018137645
       31.350000     0.067270832     0.011392832       2.2293330       2.2255602      0.16952192
       31.680000     0.078049118     0.012766965       2.2635167       2.2545121      0.39940288
       32.010000     0.087915579     0.014024069       2.2991411       2.2836706      0.67744295
       32.340000     0.094580610     0.015047325       2.3363855       2.3130398       1.0093114
       32.670000     0.094767595     0.015706800       2.3754157       2.3426239       1.3997866
       33.000000     0.084487449     0.015864940       2.4163665       2.3724275       1.8520728
