Results for:	
File:	C:\Users\User\OneDrive - Massachusetts Institute of Technology\Documents\MIT\Grad School\Classes\2.156\Lens Project\Prime Lenses\US07190532-1.ZMX
Title:	Olympus cellphone 
Date:	11/7/2025 5:48:20 PM

0 message(s) in output.
3 series table(s) in output.

Table series: Data for wavelength : 0.486133 µm.
   Y Angle (deg)       Tan Shift       Sag Shift     Real Height     Ref. Height      Distortion
  --------------  --------------  --------------  --------------  --------------  --------------
      0.00000000    -0.024577344    -0.024577344      0.00000000      0.00000000      0.00000000
      0.33000000    -0.024526433    -0.024574164     0.026726100     0.026725954  5.4616169E-004
      0.66000000    -0.024374599    -0.024564686     0.053454848     0.053453681  2.1835434E-003
      0.99000000    -0.024122965    -0.024549086     0.080188891     0.080184955  4.9088252E-003
       1.3200000    -0.023773376    -0.024527659      0.10693087      0.10692155  8.7164989E-003
       1.6500000    -0.023328376    -0.024500812      0.13368342      0.13366524     0.013598899
       1.9800000    -0.022791183    -0.024469062      0.16044917      0.16041781     0.019546248
       2.3100000    -0.022165650    -0.024433028      0.18723073      0.18718104     0.026546714
       2.6400000    -0.021456228    -0.024393426      0.21403070      0.21395670     0.034586473
       2.9700000    -0.020667911    -0.024351060      0.24085168      0.24074659     0.043649794
       3.3000000    -0.019806190    -0.024306814      0.26769623      0.26755250     0.053719113
       3.6300000    -0.018876990    -0.024261644      0.29456690      0.29437621     0.064775131
       3.9600000    -0.017886610    -0.024216565      0.32146623      0.32121954     0.076796905
       4.2900000    -0.016841660    -0.024172642      0.34839673      0.34808428     0.089761948
       4.6200000    -0.015748990    -0.024130979      0.37536089      0.37497224      0.10364633
       4.9500000    -0.014615630    -0.024092706      0.40236118      0.40188525      0.11842476
       5.2800000    -0.013448714    -0.024058970      0.42940005      0.42882512      0.13407072
       5.6100000    -0.012255421    -0.024030920      0.45647991      0.45579368      0.15055653
       5.9400000    -0.011042904    -0.024009698      0.48360316      0.48279278      0.16785341
       6.2700000 -9.8182322E-003    -0.023996426      0.51077218      0.50982425      0.18593164
       6.6000000 -8.5883271E-003    -0.023992193      0.53798930      0.53688996      0.20476054
       6.9300000 -7.3599092E-003    -0.023998050      0.56525685      0.56399177      0.22430860
       7.2600000 -6.1394460E-003    -0.024014991      0.59257712      0.59113154      0.24454349
       7.5900000 -4.9331050E-003    -0.024043951      0.61995238      0.61831118      0.26543212
       7.9200000 -3.7467123E-003    -0.024085791      0.64738486      0.64553256      0.28694065
       8.2500000 -2.5857163E-003    -0.024141291      0.67487679      0.67279761      0.30903453
       8.5800000 -1.4551576E-003    -0.024211144      0.70243034      0.70010823      0.33167846
       8.9100000 -3.5964377E-004    -0.024295944      0.73004767      0.72746636      0.35483640
       9.2400000  6.9666927E-004    -0.024396184      0.75773092      0.75487394      0.37847153
       9.5700000  1.7100907E-003    -0.024512246      0.78548218      0.78233293      0.40254620
       9.9000000  2.6774026E-003    -0.024644400      0.81330352      0.80984530      0.42702187
       10.230000  3.5958623E-003    -0.024792793      0.84119696      0.83741304      0.45185904
       10.560000  4.4632001E-003    -0.024957452      0.86916453      0.86503814      0.47701713
       10.890000  5.2776116E-003    -0.025138278      0.89720816      0.89272264      0.50245443
       11.220000  6.0377464E-003    -0.025335039      0.92532981      0.92046856      0.52812790
       11.550000  6.7426930E-003    -0.025547377      0.95353134      0.94827795      0.55399310
       11.880000  7.3919591E-003    -0.025774797      0.98181461      0.97615288      0.58000401
       12.210000  7.9854501E-003    -0.026016673       1.0101814       1.0040954      0.60611286
       12.540000  8.5234455E-003    -0.026272240       1.0386335       1.0321078      0.63227000
       12.870000  9.0065711E-003    -0.026540603       1.0671725       1.0601919      0.65842364
       13.200000  9.4357716E-003    -0.026820726       1.0958001       1.0883501      0.68451974
       13.530000  9.8122820E-003    -0.027111443       1.1245178       1.1165845      0.71050175
       13.860000     0.010137597    -0.027411447       1.1533272       1.1448972      0.73631039
       14.190000     0.010413443    -0.027719300       1.1822296       1.1732905      0.76188345
       14.520000     0.010641745    -0.028033428       1.2112264       1.2017667      0.78715559
       14.850000     0.010824603    -0.028352120       1.2403189       1.2303279      0.81205802
       15.180000     0.010964259    -0.028673532       1.2695080       1.2589765      0.83651836
       15.510000     0.011063073    -0.028995686       1.2987950       1.2877147      0.86046034
       15.840000     0.011123499    -0.029316467       1.3281807       1.3165450      0.88380357
       16.170000     0.011148062    -0.029633626       1.3576659       1.3454697      0.90646333
       16.500000     0.011139337    -0.029944776       1.3872512       1.3744911      0.92835033
       16.830000     0.011099934    -0.030247394       1.4169373       1.4036118      0.94937046
       17.160000     0.011032480    -0.030538818       1.4467243       1.4328341      0.96942463
       17.490000     0.010939610    -0.030816246       1.4766126       1.4621605      0.98840857
       17.820000     0.010823963    -0.031076732       1.5066021       1.4915935       1.0062126
       18.150000     0.010688165    -0.031317187       1.5366928       1.5211358       1.0227216
       18.480000     0.010534844    -0.031534376       1.5668841       1.5507898       1.0378148
       18.810000     0.010366620    -0.031724913       1.5971756       1.5805582       1.0513658
       19.140000     0.010186117    -0.031885264       1.6275665       1.6104436       1.0632425
       19.470000  9.9959732E-003    -0.032011737       1.6580558       1.6404488       1.0733073
       19.800000  9.7988505E-003    -0.032100488       1.6886422       1.6705764       1.0814168
       20.130000  9.5974540E-003    -0.032147516       1.7193244       1.7008292       1.0874226
       20.460000  9.3945497E-003    -0.032148659       1.7501004       1.7312100       1.0911714
       20.790000  9.1929860E-003    -0.032099605       1.7809685       1.7617216       1.0925052
       21.120000  8.9957172E-003    -0.031995882       1.8119264       1.7923670       1.0912621
       21.450000  8.8058277E-003    -0.031832872       1.8429717       1.8231490       1.0872772
       21.780000  8.6265558E-003    -0.031605815       1.8741018       1.8540707       1.0803832
       22.110000  8.4613180E-003    -0.031309817       1.9053138       1.8851351       1.0704120
       22.440000  8.3137292E-003    -0.030939869       1.9366046       1.9163451       1.0571957
       22.770000  8.1876211E-003    -0.030490867       1.9679712       1.9477040       1.0405684
       23.100000  8.0870544E-003    -0.029957636       1.9994102       1.9792149       1.0203687
       23.430000  8.0163248E-003    -0.029334965       2.0309182       2.0108810      0.99644138
       23.760000  7.9799607E-003    -0.028617653       2.0624920       2.0427055      0.96864083
       24.090000  7.9827110E-003    -0.027800562       2.0941283       2.0746919      0.93683409
       24.420000  8.0295233E-003    -0.026878683       2.1258240       2.1068434      0.90090475
       24.750000  8.1255094E-003    -0.025847221       2.1575765       2.1391635      0.86075744
       25.080000  8.2759021E-003    -0.024701690       2.1893834       2.1716557      0.81632291
       25.410000  8.4860020E-003    -0.023438041       2.2212432       2.2043236      0.76756393
       25.740000  8.7611212E-003    -0.022052792       2.2531549       2.2371707      0.71448201
       26.070000  9.1065293E-003    -0.020543205       2.2851188       2.2702007      0.65712506
       26.400000  9.5274135E-003    -0.018907472       2.3171365       2.3034174      0.59559614
       26.730000     0.010028868    -0.017144940       2.3492113       2.3368246      0.53006336
       27.060000     0.010615940    -0.015256367       2.3813485       2.3704262      0.46077121
       27.390000     0.011293754    -0.013244198       2.4135558       2.4042261      0.38805340
       27.720000     0.012067769    -0.011112878       2.4458441       2.4382283      0.31234751
       28.050000     0.012944210 -8.8691886E-003       2.4782277       2.4724370      0.23421176
       28.380000     0.013930754 -6.5225905E-003       2.5107254       2.5068562      0.15434420
       28.710000     0.015037536 -4.0855735E-003       2.5433610       2.5414904     0.073604823
       29.040000     0.016278594 -1.5739833E-003       2.5761645       2.5763437 -6.9588685E-003
       29.370000     0.017673828  9.9270198E-004       2.6091727       2.6114207    -0.086082167
       29.700000     0.019251606  3.5911848E-003       2.6424315       2.6467258     -0.16224860
       30.030000     0.021052083  6.1943026E-003       2.6759966       2.6822637     -0.23364958
       30.360000     0.023131266  8.7711885E-003       2.7099355       2.7180390     -0.29813743
       30.690000     0.025565744     0.011287711       2.7443299       2.7540564     -0.35317075
       31.020000     0.028457783     0.013707275       2.7792783       2.7903210     -0.39575175
       31.350000     0.031940139     0.015992067       2.8148984       2.8268377     -0.42235524
       31.680000     0.036179339     0.018104804       2.8513309       2.8636115     -0.42885025
       32.010000     0.041375257     0.020011006       2.8887430       2.9006477     -0.41041663
       32.340000     0.047753419     0.021681767       2.9273320       2.9379515     -0.36146147
       32.670000     0.055544402     0.023096857       2.9673296       2.9755284     -0.27554278
       33.000000     0.064941949     0.024247889       3.0090051       3.0133839     -0.14531207

Table series: Data for wavelength : 0.587562 µm.
   Y Angle (deg)       Tan Shift       Sag Shift     Real Height     Ref. Height      Distortion
  --------------  --------------  --------------  --------------  --------------  --------------
      0.00000000 -3.4248838E-003 -3.4248838E-003      0.00000000      0.00000000      0.00000000
      0.33000000 -3.3760532E-003 -3.4230125E-003     0.026771329     0.026771185  5.3836234E-004
      0.66000000 -3.2308844E-003 -3.4174590E-003     0.053545298     0.053544145  2.1523503E-003
      0.99000000 -2.9905160E-003 -3.4084043E-003     0.080324546     0.080320659  4.8386569E-003
       1.3200000 -2.6568169E-003 -3.3961473E-003      0.10711171      0.10710250  8.5917956E-003
       1.6500000 -2.2323654E-003 -3.3811025E-003      0.13390940      0.13389146     0.013404131
       1.9800000 -1.7204201E-003 -3.3637944E-003      0.16072026      0.16068930     0.019265926
       2.3100000 -1.1248842E-003 -3.3448525E-003      0.18754688      0.18749782     0.026165394
       2.6400000 -4.5026196E-004 -3.3250043E-003      0.21439186      0.21431880     0.034088773
       2.9700000  2.9839010E-004 -3.3050670E-003      0.24125777      0.24115403     0.043020394
       3.3000000  1.1155182E-003 -3.2859393E-003      0.26814719      0.26800530     0.052942771
       3.6300000  1.9951305E-003 -3.2685912E-003      0.29506265      0.29487441     0.063836691
       3.9600000  2.9308600E-003 -3.2540540E-003      0.32200668      0.32176317     0.075681305
       4.2900000  3.9160308E-003 -3.2434092E-003      0.34898179      0.34867337     0.088454231
       4.6200000  4.9437257E-003 -3.2377771E-003      0.37599046      0.37560684      0.10213165
       4.9500000  6.0068550E-003 -3.2383052E-003      0.40303514      0.40256539      0.11668841
       5.2800000  7.0982259E-003 -3.2461560E-003      0.43011829      0.42955086      0.13209810
       5.6100000  8.2106100E-003 -3.2624955E-003      0.45724230      0.45656506      0.14833320
       5.9400000  9.3368098E-003 -3.2884807E-003      0.48440957      0.48360985      0.16536509
       6.2700000     0.010469724 -3.3252482E-003      0.51162247      0.51068707      0.18316419
       6.6000000     0.011602405 -3.3739026E-003      0.53888333      0.53779859      0.20170001
       6.9300000     0.012728119 -3.4355050E-003      0.56619446      0.56494626      0.22094120
       7.2600000     0.013840397 -3.5110630E-003      0.59355815      0.59213197      0.24085562
       7.5900000     0.014933083 -3.6015199E-003      0.62097667      0.61935760      0.26141037
       7.9200000     0.016000375 -3.7077453E-003      0.64845224      0.64662506      0.28257183
       8.2500000     0.017036862 -3.8305263E-003      0.67598707      0.67393624      0.30430562
       8.5800000     0.018037554 -3.9705591E-003      0.70358334      0.70129308      0.32657666
       8.9100000     0.018997911 -4.1284414E-003      0.73124321      0.72869751      0.34934913
       9.2400000     0.019913855 -4.3046659E-003      0.75896880      0.75615148      0.37258642
       9.5700000     0.020781791 -4.4996138E-003      0.78676219      0.78365694      0.39625111
       9.9000000     0.021598608 -4.7135497E-003      0.81462545      0.81121587      0.42030486
       10.230000     0.022361685 -4.9466169E-003      0.84256061      0.83883026      0.44470841
       10.560000     0.023068888 -5.1988336E-003      0.87056967      0.86650212      0.46942141
       10.890000     0.023718561 -5.4700891E-003      0.89865458      0.89423347      0.49440234
       11.220000     0.024309515 -5.7601419E-003      0.92681727      0.92202635      0.51960840
       11.550000     0.024841011 -6.0686168E-003      0.95505962      0.94988280      0.54499537
       11.880000     0.025312743 -6.3950037E-003      0.98338346      0.97780491      0.57051744
       12.210000     0.025724812 -6.7386565E-003       1.0117906       1.0057948      0.59612708
       12.540000     0.026077703 -7.0987921E-003       1.0402827       1.0338545      0.62177481
       12.870000     0.026372266 -7.4744901E-003       1.0688616       1.0619862      0.64740910
       13.200000     0.026609667 -7.8646926E-003       1.0975287       1.0901920      0.67297609
       13.530000     0.026791382 -8.2682043E-003       1.1262858       1.1184742      0.69841944
       13.860000     0.026919153 -8.6836928E-003       1.1551342       1.1468348      0.72368008
       14.190000     0.026994962 -9.1096886E-003       1.1840754       1.1752762      0.74869602
       14.520000     0.027021001 -9.5445853E-003       1.2131107       1.2038005      0.77340211
       14.850000     0.026999644 -9.9866405E-003       1.2422414       1.2324101      0.79772978
       15.180000     0.026933418    -0.010433975       1.2714685       1.2611072      0.82160686
       15.510000     0.026824976    -0.010884573       1.3007931       1.2898941      0.84495730
       15.840000     0.026677077    -0.011336283       1.3302161       1.3187731      0.86770094
       16.170000     0.026492556    -0.011786816       1.3597384       1.3477468      0.88975331
       16.500000     0.026274314    -0.012233744       1.3893605       1.3768173      0.91102535
       16.830000     0.026025294    -0.012674503       1.4190829       1.4059872      0.93142326
       17.160000     0.025748469    -0.013106385       1.4489061       1.4352590      0.95084822
       17.490000     0.025446833    -0.013526545       1.4788302       1.4646350      0.96919629
       17.820000     0.025123392    -0.013931989       1.5088552       1.4941179      0.98635816
       18.150000     0.024781165    -0.014319583       1.5389810       1.5237101       1.0022191
       18.480000     0.024423176    -0.014686040       1.5692073       1.5534143       1.0166588
       18.810000     0.024052465    -0.015027926       1.5995333       1.5832331       1.0295514
       19.140000     0.023672095    -0.015341653       1.6299584       1.6131691       1.0407653
       19.470000     0.023285160    -0.015623479       1.6604816       1.6432250       1.0501634
       19.800000     0.022894804    -0.015869502       1.6911016       1.6734036       1.0576034
       20.130000     0.022504237    -0.016075667       1.7218170       1.7037076       1.0629375
       20.460000     0.022116761    -0.016237756       1.7526260       1.7341398       1.0660133
       20.790000     0.021735787    -0.016351394       1.7835268       1.7647031       1.0666739
       21.120000     0.021364873    -0.016412053       1.8145171       1.7954004       1.0647588
       21.450000     0.021007740    -0.016415051       1.8455945       1.8262345       1.0601042
       21.780000     0.020668312    -0.016355563       1.8767565       1.8572085       1.0525446
       22.110000     0.020350741    -0.016228630       1.9080002       1.8883254       1.0419135
       22.440000     0.020059432    -0.016029175       1.9393225       1.9195883       1.0280449
       22.770000     0.019799075    -0.015752020       1.9707205       1.9510003       1.0107755
       23.100000     0.019574663    -0.015391918       2.0021908       1.9825645      0.98994591
       23.430000     0.019391509    -0.014943579       2.0337301       2.0142841      0.96540401
       23.760000     0.019255260    -0.014401719       2.0653353       2.0461626      0.93700720
       24.090000     0.019171899    -0.013761110       2.0970030       2.0782030      0.90462597
       24.420000     0.019147739    -0.013016646       2.1287304       2.1104090      0.86814773
       24.750000     0.019189417    -0.012163428       2.1605149       2.1427838      0.82748129
       25.080000     0.019303873    -0.011196853       2.1923543       2.1753310      0.78256199
       25.410000     0.019498330    -0.010112738       2.2242471       2.2080541      0.73335762
       25.740000     0.019780275 -8.9074549E-003       2.2561925       2.2409568      0.67987510
       26.070000     0.020157452 -7.5780896E-003       2.2881911       2.2740428      0.62216817
       26.400000     0.020637875 -6.1226335E-003       2.3202447       2.3073157      0.56034609
       26.730000     0.021229880 -4.5401966E-003       2.3523566       2.3407795      0.49458354
       27.060000     0.021942255 -2.8312519E-003       2.3845324       2.3744379      0.42513183
       27.390000     0.022784450 -9.9790694E-004       2.4167802       2.4082950      0.35233170
       27.720000     0.023766953  9.5579800E-004       2.4491110       2.4423547      0.27662776
       28.050000     0.024901858  3.0235716E-003       2.4815395       2.4766213      0.19858509
       28.380000     0.026203706  5.1965402E-003       2.5140847       2.5110988      0.11890812
       28.710000     0.027690709  7.4629187E-003       2.5467707       2.5457916     0.038462385
       29.040000     0.029386423  9.8077032E-003       2.5796277       2.5807039    -0.041700494
       29.370000     0.031322034     0.012212413       2.6126930       2.6158402     -0.12031383
       29.700000     0.033539334     0.014654924       2.6460124       2.6512051     -0.19586230
       30.030000     0.036094542     0.017109434       2.6796416       2.6868031     -0.26654287
       30.360000     0.039062995     0.019546633       2.7136482       2.7226389     -0.33021954
       30.690000     0.042544722     0.021934135       2.7481137       2.7587174     -0.38437100
       31.020000     0.046670648     0.024237259       2.7831356       2.7950433     -0.42603070
       31.350000     0.051608931     0.026420224       2.8188308       2.8316218     -0.45171947
       31.680000     0.057570338     0.028447823       2.8553383       2.8684579     -0.45737145
       32.010000     0.064810749     0.030287586       2.8928229       2.9055567     -0.43825578
       32.340000     0.073627545     0.031912399       2.9314787       2.9429237     -0.38889861
       32.670000     0.084344691     0.033303434       2.9715327       2.9805642     -0.30301273
       33.000000     0.097278615     0.034453120       3.0132483       3.0184837     -0.17344542

Table series: Data for wavelength : 0.656273 µm.
   Y Angle (deg)       Tan Shift       Sag Shift     Real Height     Ref. Height      Distortion
  --------------  --------------  --------------  --------------  --------------  --------------
      0.00000000  7.4562239E-003  7.4562239E-003      0.00000000      0.00000000      0.00000000
      0.33000000  7.5043325E-003  7.4576005E-003     0.026789877     0.026789734  5.3423060E-004
      0.66000000  7.6471528E-003  7.4616693E-003     0.053582389     0.053581245  2.1358262E-003
      0.99000000  7.8835395E-003  7.4682482E-003     0.080380171     0.080376312  4.8014886E-003
       1.3200000  8.2116133E-003  7.4770359E-003      0.10718585      0.10717671  8.5257456E-003
       1.6500000  8.6287815E-003  7.4876154E-003      0.13400205      0.13398423     0.013300982
       1.9800000  9.1317674E-003  7.4994582E-003      0.16083138      0.16080064     0.019117487
       2.3100000  9.7166469E-003  7.5119306E-003      0.18767645      0.18762773     0.025963506
       2.6400000     0.010378892  7.5243000E-003      0.21453984      0.21446730     0.033825313
       2.9700000     0.011113420  7.5357436E-003      0.24142413      0.24132112     0.042687283
       3.3000000     0.011914650  7.5453566E-003      0.26833188      0.26819100     0.052531980
       3.6300000     0.012776560  7.5521625E-003      0.29526563      0.29507873     0.063340242
       3.9600000     0.013692756  7.5551232E-003      0.32222789      0.32198611     0.075091282
       4.2900000     0.014656531  7.5531502E-003      0.34922118      0.34891496     0.087762782
       4.6200000     0.015660940  7.5451159E-003      0.37624796      0.37586709      0.10133099
       4.9500000     0.016698866  7.5298656E-003      0.40331070      0.40284432      0.11577083
       5.2800000     0.017763092  7.5062296E-003      0.43041183      0.42984848      0.13105599
       5.6100000     0.018846367  7.4730350E-003      0.45755375      0.45688140      0.14715900
       5.9400000     0.019941474  7.4291180E-003      0.48473885      0.48394493      0.16405135
       6.2700000     0.021041295  7.3733355E-003      0.51196949      0.51104092      0.18170355
       6.6000000     0.022138873  7.3045772E-003      0.53924802      0.53817121      0.20008519
       6.9300000     0.023227466  7.2217761E-003      0.56657672      0.56533770      0.21916504
       7.2600000     0.024300602  7.1239201E-003      0.59395789      0.59254224      0.23891107
       7.5900000     0.025352130  7.0100615E-003      0.62139379      0.61978674      0.25929046
       7.9200000     0.026376254  6.8793271E-003      0.64888664      0.64707309      0.28026970
       8.2500000     0.027367578  6.7309272E-003      0.67643865      0.67440320      0.30181454
       8.5800000     0.028321133  6.5641635E-003      0.70405199      0.70177899      0.32389001
       8.9100000     0.029232402  6.3784372E-003      0.73172881      0.72920241      0.34646039
       9.2400000     0.030097340  6.1732554E-003      0.75947123      0.75667540      0.36948919
       9.5700000     0.030912388  5.9482375E-003      0.78728135      0.78419992      0.39293909
       9.9000000     0.031674477  5.7031205E-003      0.81516121      0.81177794      0.41677189
       10.230000     0.032381035  5.4377636E-003      0.84311284      0.83941147      0.44094843
       10.560000     0.033029981  5.1521520E-003      0.87113825      0.86710250      0.46542846
       10.890000     0.033619717  4.8464006E-003      0.89923937      0.89485307      0.49017060
       11.220000     0.034149116  4.5207565E-003      0.92741814      0.92266520      0.51513216
       11.550000     0.034617509  4.1756009E-003      0.95567643      0.95054095      0.54026901
       11.880000     0.035024661  3.8114508E-003      0.98401608      0.97848241      0.56553547
       12.210000     0.035370750  3.4289605E-003       1.0124389       1.0064917      0.59088409
       12.540000     0.035656343  3.0289219E-003       1.0409465       1.0345708      0.61626554
       12.870000     0.035882369  2.6122650E-003       1.0695407       1.0627220      0.64162837
       13.200000     0.036050089  2.1800581E-003       1.0982231       1.0909474      0.66691883
       13.530000     0.036161066  1.7335078E-003       1.1269952       1.1192491      0.69208068
       13.860000     0.036217137  1.2739587E-003       1.1558586       1.1476294      0.71705497
       14.190000     0.036220383  8.0289296E-004       1.1848145       1.1760905      0.74177980
       14.520000     0.036173097  3.2193047E-004       1.2138644       1.2046346      0.76619012
       14.850000     0.036077754 -1.6717187E-004       1.2430095       1.2332640      0.79021750
       15.180000     0.035936990 -6.6252005E-004       1.2722508       1.2619809      0.81378984
       15.510000     0.035753568 -1.1620830E-003       1.3015895       1.2907878      0.83683122
       15.840000     0.035530357 -1.6636923E-003       1.3310265       1.3196869      0.85926160
       16.170000     0.035270311 -2.1650419E-003       1.3605624       1.3486806      0.88099663
       16.500000     0.034976449 -2.6636873E-003       1.3901981       1.3777713      0.90194739
       16.830000     0.034651838 -3.1570443E-003       1.4199339       1.4069614      0.92202019
       17.160000     0.034299577 -3.6423881E-003       1.4497702       1.4362534      0.94111640
       17.490000     0.033922793 -4.1168517E-003       1.4797074       1.4656498      0.95913222
       17.820000     0.033524630 -4.5774236E-003       1.5097452       1.4951531      0.97595853
       18.150000     0.033108246 -5.0209458E-003       1.5398836       1.5247659      0.99148080
       18.480000     0.032676815 -5.4441121E-003       1.5701223       1.5544907       1.0055789
       18.810000     0.032233535 -5.8434648E-003       1.6004606       1.5843301       1.0181273
       19.140000     0.031781630 -6.2153927E-003       1.6308978       1.6142868       1.0289946
       19.470000     0.031324367 -6.5561292E-003       1.6614328       1.6443636       1.0380441
       19.800000     0.030865074 -6.8617498E-003       1.6920645       1.6745631       1.0451337
       20.130000     0.030407157 -7.1281708E-003       1.7227914       1.7048881       1.0501162
       20.460000     0.029954125 -7.3511492E-003       1.7536117       1.7353414       1.0528394
       20.790000     0.029509615 -7.5262830E-003       1.7845236       1.7659258       1.0531471
       21.120000     0.029077424 -7.6490134E-003       1.8155249       1.7966444       1.0508792
       21.450000     0.028661540 -7.7146293E-003       1.8466132       1.8274999       1.0458727
       21.780000     0.028266171 -7.7182740E-003       1.8777858       1.8584954       1.0379626
       22.110000     0.027895783 -7.6549560E-003       1.9090400       1.8896338       1.0269832
       22.440000     0.027555126 -7.5195629E-003       1.9403728       1.9209184       1.0127695
       22.770000     0.027249271 -7.3068817E-003       1.9717811       1.9523521      0.99515901
       23.100000     0.026983636 -7.0116239E-003       2.0032616       1.9839381      0.97399357
       23.430000     0.026764006 -6.6284595E-003       2.0348111       2.0156798      0.94912211
       23.760000     0.026596557 -6.1520588E-003       2.0664263       2.0475803      0.92040337
       24.090000     0.026487867 -5.5771454E-003       2.0981042       2.0796430      0.88770925
       24.420000     0.026444924 -4.8985615E-003       2.1298418       2.1118712      0.85092871
       24.750000     0.026475126 -4.1113467E-003       2.1616365       2.1442685      0.80997224
       25.080000     0.026586282 -3.2108350E-003       2.1934862       2.1768382      0.76477700
       25.410000     0.026786607 -2.1927689E-003       2.2253895       2.2095840      0.71531272
       25.740000     0.027084723 -1.0534354E-003       2.2573457       2.2425095      0.66158837
       26.070000     0.027489682  2.1017428E-004       2.2893554       2.2756184      0.60365988
       26.400000     0.028011003  1.6001804E-003       2.3214204       2.3089144      0.54163877
       26.730000     0.028658770  3.1176025E-003       2.3535442       2.3424013      0.47570203
       27.060000     0.029443791  4.7621198E-003       2.3857324       2.3760831      0.40610331
       27.390000     0.030377876  6.5318044E-003       2.4179933       2.4099636      0.33318560
       27.720000     0.031474264  8.4228286E-003       2.4503379       2.4440470      0.25739567
       28.050000     0.032748271     0.010429153       2.4827810       2.4783373      0.17930049
       28.380000     0.034218228     0.012542204       2.5153416       2.5128387     0.099605977
       28.710000     0.035906809     0.014750549       2.5480441       2.5475555     0.019178540
       29.040000     0.037842859     0.017039603       2.5809185       2.5824920    -0.060930194
       29.370000     0.040063842     0.019391375       2.6140023       2.6176527     -0.13945478
       29.700000     0.042619054     0.021784311       2.6473411       2.6530421     -0.21488282
       30.030000     0.045573718     0.024193265       2.6809908       2.6886647     -0.28541657
       30.360000     0.049014064     0.026589673       2.7150187       2.7245254     -0.34892841
       30.690000     0.053053376     0.028941981       2.7495060       2.7606288     -0.40290954
       31.020000     0.057838877     0.031216419       2.7845499       2.7969800     -0.44441137
       31.350000     0.063558948     0.033378173       2.8202665       2.8335838     -0.46997966
       31.680000     0.070449748     0.035393031       2.8567940       2.8704453     -0.47558236
       32.010000     0.078799419     0.037229497       2.8942959       2.9075699     -0.45653345
       32.340000     0.088946842     0.038861354       2.9329645       2.9449628     -0.40741737
       32.670000      0.10126997     0.040270520       2.9730247       2.9826293     -0.32202087
       33.000000      0.11615612     0.041449951       3.0147369       3.0205752     -0.19328308
