Results for:	
File:	C:\Users\User\OneDrive - Massachusetts Institute of Technology\Documents\MIT\Grad School\Classes\2.156\Lens Project\Prime Lenses\Imaging_Optics_Figure_7_6.zmx
Title:	Apochromatic doublet (0.425 to 1.5 micron wavelength), Imaging Optics p. 434
Date:	11/7/2025 5:24:17 PM

0 message(s) in output.
9 series table(s) in output.

Table series: Data for wavelength : 0.425000 µm.
        Y Height       Tan Shift       Sag Shift     Real Height     Ref. Height      Distortion
  --------------  --------------  --------------  --------------  --------------  --------------
      0.00000000     0.041653569     0.041653569      0.00000000      0.00000000      0.00000000
     0.010000000     0.041651861     0.041652725  9.9957543E-003  9.9957543E-003  2.4713458E-008
     0.020000000     0.041646635     0.041650191     0.019991509     0.019991509  9.8853953E-008
     0.030000000     0.041637892     0.041645969     0.029987263     0.029987263  2.2242145E-007
     0.040000000     0.041625633     0.041640057     0.039983017     0.039983017  3.9541597E-007
     0.050000000     0.041609856     0.041632456     0.049978772     0.049978771  6.1783756E-007
     0.060000000     0.041590563     0.041623166     0.059974526     0.059974526  8.8968614E-007
     0.070000000     0.041567753     0.041612187     0.069970281     0.069970280  1.2109619E-006
     0.080000000     0.041541426     0.041599519     0.079966036     0.079966034  1.5816648E-006
     0.090000000     0.041511582     0.041585161     0.089961790     0.089961789  2.0017949E-006
      0.10000000     0.041478222     0.041569115     0.099957545     0.099957543  2.4713521E-006
      0.11000000     0.041441344     0.041551379      0.10995330      0.10995330  2.9903368E-006
      0.12000000     0.041400950     0.041531955      0.11994906      0.11994905  3.5587487E-006
      0.13000000     0.041357039     0.041510841      0.12994481      0.12994481  4.1765881E-006
      0.14000000     0.041309611     0.041488039      0.13994057      0.13994056  4.8438550E-006
      0.15000000     0.041258666     0.041463547      0.14993632      0.14993631  5.5605494E-006
      0.16000000     0.041204205     0.041437366      0.15993208      0.15993207  6.3266715E-006
      0.17000000     0.041146226     0.041409496      0.16992784      0.16992782  7.1422214E-006
      0.18000000     0.041084731     0.041379937      0.17992359      0.17992358  8.0071992E-006
      0.19000000     0.041019719     0.041348689      0.18991935      0.18991933  8.9216049E-006
      0.20000000     0.040951191     0.041315752      0.19991511      0.19991509  9.8854387E-006
      0.21000000     0.040879145     0.041281126      0.20991086      0.20991084  1.0898701E-005
      0.22000000     0.040803583     0.041244811      0.21990662      0.21990659  1.1961391E-005
      0.23000000     0.040724504     0.041206806      0.22990238      0.22990235  1.3073510E-005
      0.24000000     0.040641909     0.041167113      0.23989814      0.23989810  1.4235057E-005
      0.25000000     0.040555797     0.041125731      0.24989390      0.24989386  1.5446033E-005
      0.26000000     0.040466168     0.041082659      0.25988966      0.25988961  1.6706438E-005
      0.27000000     0.040373022     0.041037899      0.26988541      0.26988537  1.8016272E-005
      0.28000000     0.040276360     0.040991450      0.27988117      0.27988112  1.9375535E-005
      0.29000000     0.040176181     0.040943311      0.28987693      0.28987687  2.0784227E-005
      0.30000000     0.040072486     0.040893484      0.29987270      0.29987263  2.2242349E-005
      0.31000000     0.039965274     0.040841967      0.30986846      0.30986838  2.3749900E-005
      0.32000000     0.039854545     0.040788762      0.31986422      0.31986414  2.5306882E-005
      0.33000000     0.039740300     0.040733867      0.32985998      0.32985989  2.6913293E-005
      0.34000000     0.039622538     0.040677284      0.33985574      0.33985565  2.8569135E-005
      0.35000000     0.039501260     0.040619012      0.34985151      0.34985140  3.0274407E-005
      0.36000000     0.039376465     0.040559050      0.35984727      0.35984715  3.2029110E-005
      0.37000000     0.039248154     0.040497400      0.36984303      0.36984291  3.3833244E-005
      0.38000000     0.039116326     0.040434060      0.37983880      0.37983866  3.5686809E-005
      0.39000000     0.038980982     0.040369032      0.38983456      0.38983442  3.7589805E-005
      0.40000000     0.038842121     0.040302315      0.39983033      0.39983017  3.9542232E-005
      0.41000000     0.038699745     0.040233909      0.40982610      0.40982593  4.1544092E-005
      0.42000000     0.038553851     0.040163814      0.41982186      0.41982168  4.3595383E-005
      0.43000000     0.038404442     0.040092030      0.42981763      0.42981743  4.5696107E-005
      0.44000000     0.038251516     0.040018557      0.43981340      0.43981319  4.7846263E-005
      0.45000000     0.038095073     0.039943395      0.44980917      0.44980894  5.0045852E-005
      0.46000000     0.037935115     0.039866544      0.45980494      0.45980470  5.2294874E-005
      0.47000000     0.037771640     0.039788005      0.46980071      0.46980045  5.4593329E-005
      0.48000000     0.037604649     0.039707776      0.47979648      0.47979621  5.6941218E-005
      0.49000000     0.037434142     0.039625859      0.48979225      0.48979196  5.9338540E-005
      0.50000000     0.037260119     0.039542253      0.49978802      0.49978771  6.1785297E-005
      0.51000000     0.037082579     0.039456957      0.50978380      0.50978347  6.4281489E-005
      0.52000000     0.036901524     0.039369974      0.51977957      0.51977922  6.6827115E-005
      0.53000000     0.036716952     0.039281301      0.52977535      0.52977498  6.9422176E-005
      0.54000000     0.036528865     0.039190939      0.53977112      0.53977073  7.2066672E-005
      0.55000000     0.036337261     0.039098889      0.54976690      0.54976649  7.4760605E-005
      0.56000000     0.036142142     0.039005150      0.55976267      0.55976224  7.7503973E-005
      0.57000000     0.035943506     0.038909722      0.56975845      0.56975799  8.0296778E-005
      0.58000000     0.035741355     0.038812605      0.57975423      0.57975375  8.3139019E-005
      0.59000000     0.035535688     0.038713799      0.58975001      0.58974950  8.6030697E-005
      0.60000000     0.035326505     0.038613305      0.59974579      0.59974526  8.8971813E-005
      0.61000000     0.035113806     0.038511122      0.60974157      0.60974101  9.1962366E-005
      0.62000000     0.034897591     0.038407250      0.61973735      0.61973677  9.5002358E-005
      0.63000000     0.034677861     0.038301690      0.62973314      0.62973252  9.8091788E-005
      0.64000000     0.034454615     0.038194441      0.63972892      0.63972827  1.0123066E-004
      0.65000000     0.034227853     0.038085503      0.64972471      0.64972403  1.0441896E-004
      0.66000000     0.033997576     0.037974876      0.65972049      0.65971978  1.0765671E-004
      0.67000000     0.033763783     0.037862561      0.66971628      0.66971554  1.1094390E-004
      0.68000000     0.033526475     0.037748557      0.67971207      0.67971129  1.1428053E-004
      0.69000000     0.033285651     0.037632864      0.68970786      0.68970705  1.1766660E-004
      0.70000000     0.033041312     0.037515483      0.69970365      0.69970280  1.2110211E-004
      0.71000000     0.032793457     0.037396413      0.70969944      0.70969855  1.2458706E-004
      0.72000000     0.032542087     0.037275655      0.71969523      0.71969431  1.2812145E-004
      0.73000000     0.032287201     0.037153208      0.72969102      0.72969006  1.3170529E-004
      0.74000000     0.032028801     0.037029072      0.73968682      0.73968582  1.3533857E-004
      0.75000000     0.031766885     0.036903248      0.74968261      0.74968157  1.3902129E-004
      0.76000000     0.031501454     0.036775736      0.75967841      0.75967733  1.4275346E-004
      0.77000000     0.031232507     0.036646534      0.76967421      0.76967308  1.4653507E-004
      0.78000000     0.030960046     0.036515645      0.77967001      0.77966883  1.5036612E-004
      0.79000000     0.030684070     0.036383066      0.78966581      0.78966459  1.5424662E-004
      0.80000000     0.030404578     0.036248800      0.79966161      0.79966034  1.5817657E-004
      0.81000000     0.030121572     0.036112844      0.80965741      0.80965610  1.6215596E-004
      0.82000000     0.029835051     0.035975201      0.81965321      0.81965185  1.6618480E-004
      0.83000000     0.029545014     0.035835869      0.82964902      0.82964761  1.7026308E-004
      0.84000000     0.029251463     0.035694848      0.83964482      0.83964336  1.7439082E-004
      0.85000000     0.028954398     0.035552139      0.84964063      0.84963911  1.7856800E-004
      0.86000000     0.028653817     0.035407742      0.85963644      0.85963487  1.8279463E-004
      0.87000000     0.028349722     0.035261656      0.86963225      0.86963062  1.8707071E-004
      0.88000000     0.028042112     0.035113882      0.87962806      0.87962638  1.9139623E-004
      0.89000000     0.027730988     0.034964420      0.88962387      0.88962213  1.9577121E-004
      0.90000000     0.027416349     0.034813269      0.89961969      0.89961789  2.0019564E-004
      0.91000000     0.027098196     0.034660430      0.90961550      0.90961364  2.0466952E-004
      0.92000000     0.026776528     0.034505902      0.91961132      0.91960940  2.0919285E-004
      0.93000000     0.026451346     0.034349687      0.92960714      0.92960515  2.1376564E-004
      0.94000000     0.026122650     0.034191783      0.93960296      0.93960090  2.1838788E-004
      0.95000000     0.025790439     0.034032191      0.94959878      0.94959666  2.2305957E-004
      0.96000000     0.025454714     0.033870911      0.95959460      0.95959241  2.2778071E-004
      0.97000000     0.025115475     0.033707942      0.96959042      0.96958817  2.3255131E-004
      0.98000000     0.024772722     0.033543285      0.97958625      0.97958392  2.3737136E-004
      0.99000000     0.024426455     0.033376940      0.98958207      0.98957968  2.4224087E-004
       1.0000000     0.024076674     0.033208907      0.99957790      0.99957543  2.4715984E-004

Table series: Data for wavelength : 0.450000 µm.
        Y Height       Tan Shift       Sag Shift     Real Height     Ref. Height      Distortion
  --------------  --------------  --------------  --------------  --------------  --------------
      0.00000000     0.028493128     0.028493128      0.00000000      0.00000000      0.00000000
     0.010000000     0.028491435     0.028492284  9.9955823E-003  9.9955823E-003  2.4566540E-008
     0.020000000     0.028486227     0.028489752     0.019991165     0.019991165  9.8266004E-008
     0.030000000     0.028477503     0.028485532     0.029986747     0.029986747  2.2109859E-007
     0.040000000     0.028465264     0.028479624     0.039982330     0.039982329  3.9306412E-007
     0.050000000     0.028449511     0.028472028     0.049977912     0.049977912  6.1416274E-007
     0.060000000     0.028430241     0.028462744     0.059973495     0.059973494  8.8439447E-007
     0.070000000     0.028407457     0.028451772     0.069969077     0.069969076  1.2037593E-006
     0.080000000     0.028381158     0.028439112     0.079964660     0.079964659  1.5722573E-006
     0.090000000     0.028351343     0.028424764     0.089960243     0.089960241  1.9898884E-006
      0.10000000     0.028318013     0.028408728     0.099955826     0.099955823  2.4566529E-006
      0.11000000     0.028281168     0.028391004      0.10995141      0.10995141  2.9725507E-006
      0.12000000     0.028240808     0.028371591      0.11994699      0.11994699  3.5375817E-006
      0.13000000     0.028196933     0.028350491      0.12994258      0.12994257  4.1517463E-006
      0.14000000     0.028149542     0.028327703      0.13993816      0.13993815  4.8150444E-006
      0.15000000     0.028098637     0.028303227      0.14993374      0.14993374  5.5274760E-006
      0.16000000     0.028044216     0.028277063      0.15992933      0.15992932  6.2890413E-006
      0.17000000     0.027986280     0.028249211      0.16992491      0.16992490  7.0997404E-006
      0.18000000     0.027924829     0.028219671      0.17992050      0.17992048  7.9595734E-006
      0.19000000     0.027859863     0.028188443      0.18991608      0.18991606  8.8685403E-006
      0.20000000     0.027791382     0.028155527      0.19991167      0.19991165  9.8266414E-006
      0.21000000     0.027719386     0.028120923      0.20990725      0.20990723  1.0833877E-005
      0.22000000     0.027643874     0.028084631      0.21990284      0.21990281  1.1890246E-005
      0.23000000     0.027564848     0.028046651      0.22989842      0.22989839  1.2995750E-005
      0.24000000     0.027482306     0.028006984      0.23989401      0.23989398  1.4150389E-005
      0.25000000     0.027396250     0.027965628      0.24988960      0.24988956  1.5354162E-005
      0.26000000     0.027306679     0.027922584      0.25988518      0.25988514  1.6607070E-005
      0.27000000     0.027213592     0.027877852      0.26988077      0.26988072  1.7909113E-005
      0.28000000     0.027116991     0.027831433      0.27987636      0.27987631  1.9260292E-005
      0.29000000     0.027016874     0.027783325      0.28987195      0.28987189  2.0660605E-005
      0.30000000     0.026913243     0.027733530      0.29986754      0.29986747  2.2110055E-005
      0.31000000     0.026806097     0.027682046      0.30986313      0.30986305  2.3608640E-005
      0.32000000     0.026695435     0.027628875      0.31985872      0.31985863  2.5156360E-005
      0.33000000     0.026581259     0.027574015      0.32985431      0.32985422  2.6753217E-005
      0.34000000     0.026463568     0.027517468      0.33984990      0.33984980  2.8399210E-005
      0.35000000     0.026342363     0.027459233      0.34984549      0.34984538  3.0094340E-005
      0.36000000     0.026217642     0.027399310      0.35984108      0.35984096  3.1838606E-005
      0.37000000     0.026089406     0.027337699      0.36983667      0.36983655  3.3632009E-005
      0.38000000     0.025957656     0.027274401      0.37983226      0.37983213  3.5474549E-005
      0.39000000     0.025822391     0.027209414      0.38982786      0.38982771  3.7366227E-005
      0.40000000     0.025683611     0.027142740      0.39982345      0.39982329  3.9307042E-005
      0.41000000     0.025541317     0.027074377      0.40981905      0.40981888  4.1296994E-005
      0.42000000     0.025395508     0.027004327      0.41981464      0.41981446  4.3336085E-005
      0.43000000     0.025246184     0.026932589      0.42981024      0.42981004  4.5424314E-005
      0.44000000     0.025093345     0.026859163      0.43980583      0.43980562  4.7561682E-005
      0.45000000     0.024936992     0.026784050      0.44980143      0.44980121  4.9748188E-005
      0.46000000     0.024777125     0.026707248      0.45979703      0.45979679  5.1983833E-005
      0.47000000     0.024613742     0.026628759      0.46979262      0.46979237  5.4268618E-005
      0.48000000     0.024446845     0.026548582      0.47978822      0.47978795  5.6602542E-005
      0.49000000     0.024276434     0.026466717      0.48978382      0.48978353  5.8985606E-005
      0.50000000     0.024102508     0.026383164      0.49977942      0.49977912  6.1417810E-005
      0.51000000     0.023925068     0.026297924      0.50977503      0.50977470  6.3899155E-005
      0.52000000     0.023744113     0.026210996      0.51977063      0.51977028  6.6429640E-005
      0.53000000     0.023559644     0.026122380      0.52976623      0.52976586  6.9009267E-005
      0.54000000     0.023371661     0.026032076      0.53976183      0.53976145  7.1638035E-005
      0.55000000     0.023180163     0.025940085      0.54975744      0.54975703  7.4315944E-005
      0.56000000     0.022985151     0.025846405      0.55975304      0.55975261  7.7042996E-005
      0.57000000     0.022786624     0.025751039      0.56974865      0.56974819  7.9819190E-005
      0.58000000     0.022584584     0.025653984      0.57974425      0.57974378  8.2644526E-005
      0.59000000     0.022379029     0.025555242      0.58973986      0.58973936  8.5519006E-005
      0.60000000     0.022169960     0.025454812      0.59973547      0.59973494  8.8442629E-005
      0.61000000     0.021957377     0.025352694      0.60973108      0.60973052  9.1415395E-005
      0.62000000     0.021741280     0.025248889      0.61972669      0.61972611  9.4437306E-005
      0.63000000     0.021521668     0.025143396      0.62972230      0.62972169  9.7508361E-005
      0.64000000     0.021298543     0.025036216      0.63971791      0.63971727  1.0062856E-004
      0.65000000     0.021071904     0.024927348      0.64971353      0.64971285  1.0379791E-004
      0.66000000     0.020841751     0.024816792      0.65970914      0.65970843  1.0701640E-004
      0.67000000     0.020608084     0.024704549      0.66970476      0.66970402  1.1028403E-004
      0.68000000     0.020370903     0.024590618      0.67970037      0.67969960  1.1360082E-004
      0.69000000     0.020130208     0.024475000      0.68969599      0.68969518  1.1696675E-004
      0.70000000     0.019885999     0.024357694      0.69969161      0.69969076  1.2038182E-004
      0.71000000     0.019638277     0.024238700      0.70968722      0.70968635  1.2384605E-004
      0.72000000     0.019387041     0.024118019      0.71968284      0.71968193  1.2735942E-004
      0.73000000     0.019132291     0.023995651      0.72967847      0.72967751  1.3092194E-004
      0.74000000     0.018874028     0.023871595      0.73967409      0.73967309  1.3453361E-004
      0.75000000     0.018612251     0.023745851      0.74966971      0.74966868  1.3819443E-004
      0.76000000     0.018346961     0.023618420      0.75966534      0.75966426  1.4190440E-004
      0.77000000     0.018078157     0.023489302      0.76966096      0.76965984  1.4566352E-004
      0.78000000     0.017805840     0.023358496      0.77965659      0.77965542  1.4947179E-004
      0.79000000     0.017530009     0.023226003      0.78965222      0.78965100  1.5332921E-004
      0.80000000     0.017250665     0.023091822      0.79964784      0.79964659  1.5723578E-004
      0.81000000     0.016967808     0.022955954      0.80964347      0.80964217  1.6119151E-004
      0.82000000     0.016681437     0.022818398      0.81963911      0.81963775  1.6519638E-004
      0.83000000     0.016391553     0.022679155      0.82963474      0.82963333  1.6925041E-004
      0.84000000     0.016098156     0.022538225      0.83963037      0.83962892  1.7335360E-004
      0.85000000     0.015801246     0.022395608      0.84962601      0.84962450  1.7750594E-004
      0.86000000     0.015500823     0.022251303      0.85962164      0.85962008  1.8170743E-004
      0.87000000     0.015196887     0.022105311      0.86961728      0.86961566  1.8595808E-004
      0.88000000     0.014889438     0.021957631      0.87961292      0.87961125  1.9025788E-004
      0.89000000     0.014578476     0.021808265      0.88960856      0.88960683  1.9460684E-004
      0.90000000     0.014264001     0.021657211      0.89960420      0.89960241  1.9900495E-004
      0.91000000     0.013946014     0.021504470      0.90959984      0.90959799  2.0345222E-004
      0.92000000     0.013624513     0.021350041      0.91959549      0.91959358  2.0794865E-004
      0.93000000     0.013299500     0.021193926      0.92959113      0.92958916  2.1249424E-004
      0.94000000     0.012970975     0.021036123      0.93958678      0.93958474  2.1708899E-004
      0.95000000     0.012638936     0.020876633      0.94958243      0.94958032  2.2173290E-004
      0.96000000     0.012303386     0.020715456      0.95957808      0.95957590  2.2642596E-004
      0.97000000     0.011964322     0.020552592      0.96957373      0.96957149  2.3116819E-004
      0.98000000     0.011621747     0.020388041      0.97956938      0.97956707  2.3595958E-004
      0.99000000     0.011275659     0.020221803      0.98956503      0.98956265  2.4080013E-004
       1.0000000     0.010926059     0.020053877      0.99956069      0.99955823  2.4568984E-004

Table series: Data for wavelength : 0.480000 µm.
        Y Height       Tan Shift       Sag Shift     Real Height     Ref. Height      Distortion
  --------------  --------------  --------------  --------------  --------------  --------------
      0.00000000     0.026968479     0.026968479      0.00000000      0.00000000      0.00000000
     0.010000000     0.026966801     0.026967635  9.9954112E-003  9.9954112E-003  2.4420136E-008
     0.020000000     0.026961608     0.026965105     0.019990822     0.019990822  9.7680317E-008
     0.030000000     0.026952902     0.026960887     0.029986234     0.029986234  2.1978072E-007
     0.040000000     0.026940681     0.026954981     0.039981645     0.039981645  3.9072130E-007
     0.050000000     0.026924947     0.026947389     0.049977056     0.049977056  6.1050207E-007
     0.060000000     0.026905699     0.026938110     0.059972468     0.059972467  8.7912303E-007
     0.070000000     0.026882936     0.026927143     0.069967879     0.069967879  1.1965843E-006
     0.080000000     0.026856660     0.026914489     0.079963291     0.079963290  1.5628859E-006
     0.090000000     0.026826870     0.026900148     0.089958703     0.089958701  1.9780278E-006
      0.10000000     0.026793565     0.026884120     0.099954115     0.099954112  2.4420101E-006
      0.11000000     0.026756747     0.026866404      0.10994953      0.10994952  2.9548328E-006
      0.12000000     0.026716415     0.026847002      0.11994494      0.11994493  3.5164961E-006
      0.13000000     0.026672568     0.026825912      0.12994035      0.12994035  4.1269999E-006
      0.14000000     0.026625208     0.026803135      0.13993576      0.13993576  4.7863444E-006
      0.15000000     0.026574334     0.026778671      0.14993118      0.14993117  5.4945296E-006
      0.16000000     0.026519946     0.026752520      0.15992659      0.15992658  6.2515556E-006
      0.17000000     0.026462044     0.026724681      0.16992200      0.16992199  7.0574226E-006
      0.18000000     0.026400628     0.026695156      0.17991742      0.17991740  7.9121306E-006
      0.19000000     0.026335698     0.026663943      0.18991283      0.18991281  8.8156796E-006
      0.20000000     0.026267255     0.026631043      0.19990824      0.19990822  9.7680700E-006
      0.21000000     0.026195297     0.026596456      0.20990366      0.20990364  1.0769302E-005
      0.22000000     0.026119825     0.026560182      0.21989907      0.21989905  1.1819375E-005
      0.23000000     0.026040840     0.026522221      0.22989449      0.22989446  1.2918289E-005
      0.24000000     0.025958341     0.026482572      0.23988990      0.23988987  1.4066046E-005
      0.25000000     0.025872328     0.026441237      0.24988532      0.24988528  1.5262644E-005
      0.26000000     0.025782801     0.026398214      0.25988074      0.25988069  1.6508084E-005
      0.27000000     0.025689760     0.026353504      0.26987615      0.26987610  1.7802367E-005
      0.28000000     0.025593206     0.026307107      0.27987157      0.27987151  1.9145492E-005
      0.29000000     0.025493138     0.026259023      0.28986699      0.28986693  2.0537459E-005
      0.30000000     0.025389556     0.026209252      0.29986240      0.29986234  2.1978269E-005
      0.31000000     0.025282460     0.026157794      0.30985782      0.30985775  2.3467921E-005
      0.32000000     0.025171850     0.026104649      0.31985324      0.31985316  2.5006417E-005
      0.33000000     0.025057727     0.026049816      0.32984866      0.32984857  2.6593756E-005
      0.34000000     0.024940090     0.025993297      0.33984408      0.33984398  2.8229938E-005
      0.35000000     0.024818940     0.025935090      0.34983950      0.34983939  2.9914964E-005
      0.36000000     0.024694276     0.025875197      0.35983492      0.35983480  3.1648834E-005
      0.37000000     0.024566098     0.025813616      0.36983034      0.36983022  3.3431547E-005
      0.38000000     0.024434407     0.025750348      0.37982576      0.37982563  3.5263105E-005
      0.39000000     0.024299202     0.025685394      0.38982118      0.38982104  3.7143508E-005
      0.40000000     0.024160483     0.025618752      0.39981661      0.39981645  3.9072755E-005
      0.41000000     0.024018251     0.025550423      0.40981203      0.40981186  4.1050846E-005
      0.42000000     0.023872506     0.025480407      0.41980745      0.41980727  4.3077783E-005
      0.43000000     0.023723247     0.025408704      0.42980288      0.42980268  4.5153566E-005
      0.44000000     0.023570474     0.025335314      0.43979830      0.43979809  4.7278194E-005
      0.45000000     0.023414189     0.025260237      0.44979373      0.44979351  4.9451668E-005
      0.46000000     0.023254389     0.025183474      0.45978915      0.45978892  5.1673988E-005
      0.47000000     0.023091077     0.025105023      0.46978458      0.46978433  5.3945154E-005
      0.48000000     0.022924251     0.025024885      0.47978001      0.47977974  5.6265168E-005
      0.49000000     0.022753911     0.024943060      0.48977544      0.48977515  5.8634028E-005
      0.50000000     0.022580059     0.024859548      0.49977087      0.49977056  6.1051735E-005
      0.51000000     0.022402693     0.024774350      0.50976630      0.50976597  6.3518290E-005
      0.52000000     0.022221814     0.024687464      0.51976173      0.51976138  6.6033693E-005
      0.53000000     0.022037422     0.024598892      0.52975716      0.52975680  6.8597944E-005
      0.54000000     0.021849516     0.024508632      0.53975259      0.53975221  7.1211044E-005
      0.55000000     0.021658097     0.024416686      0.54974802      0.54974762  7.3872992E-005
      0.56000000     0.021463166     0.024323053      0.55974346      0.55974303  7.6583790E-005
      0.57000000     0.021264721     0.024227732      0.56973889      0.56973844  7.9343437E-005
      0.58000000     0.021062763     0.024130725      0.57973433      0.57973385  8.2151933E-005
      0.59000000     0.020857292     0.024032032      0.58972976      0.58972926  8.5009280E-005
      0.60000000     0.020648308     0.023931651      0.59972520      0.59972467  8.7915478E-005
      0.61000000     0.020435812     0.023829583      0.60972064      0.60972009  9.0870526E-005
      0.62000000     0.020219802     0.023725829      0.61971608      0.61971550  9.3874425E-005
      0.63000000     0.020000280     0.023620388      0.62971152      0.62971091  9.6927176E-005
      0.64000000     0.019777244     0.023513260      0.63970696      0.63970632  1.0002878E-004
      0.65000000     0.019550696     0.023404445      0.64970240      0.64970173  1.0317923E-004
      0.66000000     0.019320635     0.023293944      0.65969784      0.65969714  1.0637854E-004
      0.67000000     0.019087062     0.023181755      0.66969329      0.66969255  1.0962670E-004
      0.68000000     0.018849975     0.023067880      0.67968873      0.67968796  1.1292372E-004
      0.69000000     0.018609377     0.022952318      0.68968418      0.68968338  1.1626959E-004
      0.70000000     0.018365265     0.022835070      0.69967962      0.69967879  1.1966431E-004
      0.71000000     0.018117641     0.022716135      0.70967507      0.70967420  1.2310789E-004
      0.72000000     0.017866505     0.022595513      0.71967052      0.71966961  1.2660032E-004
      0.73000000     0.017611856     0.022473204      0.72966597      0.72966502  1.3014161E-004
      0.74000000     0.017353694     0.022349209      0.73966142      0.73966043  1.3373175E-004
      0.75000000     0.017092020     0.022223527      0.74965687      0.74965584  1.3737075E-004
      0.76000000     0.016826834     0.022096158      0.75965233      0.75965125  1.4105861E-004
      0.77000000     0.016558136     0.021967103      0.76964778      0.76964667  1.4479532E-004
      0.78000000     0.016285925     0.021836361      0.77964323      0.77964208  1.4858089E-004
      0.79000000     0.016010202     0.021703933      0.78963869      0.78963749  1.5241532E-004
      0.80000000     0.015730967     0.021569818      0.79963415      0.79963290  1.5629861E-004
      0.81000000     0.015448220     0.021434017      0.80962961      0.80962831  1.6023076E-004
      0.82000000     0.015161961     0.021296528      0.81962507      0.81962372  1.6421177E-004
      0.83000000     0.014872190     0.021157354      0.82962053      0.82961913  1.6824164E-004
      0.84000000     0.014578906     0.021016493      0.83961599      0.83961454  1.7232036E-004
      0.85000000     0.014282111     0.020873945      0.84961145      0.84960996  1.7644795E-004
      0.86000000     0.013981804     0.020729711      0.85960692      0.85960537  1.8062441E-004
      0.87000000     0.013677986     0.020583790      0.86960238      0.86960078  1.8484972E-004
      0.88000000     0.013370655     0.020436183      0.87959785      0.87959619  1.8912389E-004
      0.89000000     0.013059813     0.020286890      0.88959332      0.88959160  1.9344693E-004
      0.90000000     0.012745459     0.020135910      0.89958879      0.89958701  1.9781884E-004
      0.91000000     0.012427594     0.019983243      0.90958426      0.90958242  2.0223960E-004
      0.92000000     0.012106217     0.019828891      0.91957973      0.91957783  2.0670923E-004
      0.93000000     0.011781328     0.019672852      0.92957521      0.92957324  2.1122773E-004
      0.94000000     0.011452928     0.019515126      0.93957068      0.93956866  2.1579509E-004
      0.95000000     0.011121017     0.019355715      0.94956616      0.94956407  2.2041132E-004
      0.96000000     0.010785594     0.019194617      0.95956164      0.95955948  2.2507642E-004
      0.97000000     0.010446660     0.019031832      0.96955712      0.96955489  2.2979038E-004
      0.98000000     0.010104215     0.018867362      0.97955260      0.97955030  2.3455321E-004
      0.99000000  9.7582587E-003     0.018701205      0.98954808      0.98954571  2.3936491E-004
       1.0000000  9.4087913E-003     0.018533362      0.99954356      0.99954112  2.4422548E-004

Table series: Data for wavelength : 0.510000 µm.
        Y Height       Tan Shift       Sag Shift     Real Height     Ref. Height      Distortion
  --------------  --------------  --------------  --------------  --------------  --------------
      0.00000000     0.033565363     0.033565363      0.00000000      0.00000000      0.00000000
     0.010000000     0.033563696     0.033564519  9.9952699E-003  9.9952699E-003  2.4298871E-008
     0.020000000     0.033558516     0.033561989     0.019990540     0.019990540  9.7195572E-008
     0.030000000     0.033549822     0.033557773     0.029985810     0.029985810  2.1869019E-007
     0.040000000     0.033537616     0.033551869     0.039981080     0.039981080  3.8878248E-007
     0.050000000     0.033521895     0.033544279     0.049976350     0.049976350  6.0747278E-007
     0.060000000     0.033502662     0.033535003     0.059971620     0.059971619  8.7476082E-007
     0.070000000     0.033479915     0.033524039     0.069966890     0.069966889  1.1906469E-006
     0.080000000     0.033453655     0.033511389     0.079962160     0.079962159  1.5551308E-006
     0.090000000     0.033423882     0.033497053     0.089957431     0.089957429  1.9682128E-006
      0.10000000     0.033390595     0.033481029     0.099952701     0.099952699  2.4298928E-006
      0.11000000     0.033353795     0.033463319      0.10994797      0.10994797  2.9401710E-006
      0.12000000     0.033313482     0.033443923      0.11994324      0.11994324  3.4990472E-006
      0.13000000     0.033269655     0.033422839      0.12993851      0.12993851  4.1065218E-006
      0.14000000     0.033222315     0.033400069      0.13993379      0.13993378  4.7625946E-006
      0.15000000     0.033171462     0.033375613      0.14992906      0.14992905  5.4672658E-006
      0.16000000     0.033117096     0.033349469      0.15992433      0.15992432  6.2205355E-006
      0.17000000     0.033059216     0.033321640      0.16991960      0.16991959  7.0224037E-006
      0.18000000     0.032997823     0.033292123      0.17991487      0.17991486  7.8728707E-006
      0.19000000     0.032932917     0.033260920      0.18991014      0.18991013  8.7719364E-006
      0.20000000     0.032864497     0.033228030      0.19990542      0.19990540  9.7196009E-006
      0.21000000     0.032792565     0.033193453      0.20990069      0.20990067  1.0715864E-005
      0.22000000     0.032717119     0.033157190      0.21989596      0.21989594  1.1760727E-005
      0.23000000     0.032638160     0.033119241      0.22989124      0.22989121  1.2854189E-005
      0.24000000     0.032555688     0.033079604      0.23988651      0.23988648  1.3996250E-005
      0.25000000     0.032469702     0.033038281      0.24988179      0.24988175  1.5186911E-005
      0.26000000     0.032380204     0.032995272      0.25987706      0.25987702  1.6426172E-005
      0.27000000     0.032287192     0.032950576      0.26987234      0.26987229  1.7714032E-005
      0.28000000     0.032190667     0.032904193      0.27986761      0.27986756  1.9050492E-005
      0.29000000     0.032090629     0.032856123      0.28986289      0.28986283  2.0435552E-005
      0.30000000     0.031987079     0.032806367      0.29985816      0.29985810  2.1869213E-005
      0.31000000     0.031880014     0.032754925      0.30985344      0.30985337  2.3351474E-005
      0.32000000     0.031769437     0.032701796      0.31984872      0.31984864  2.4882336E-005
      0.33000000     0.031655347     0.032646980      0.32984399      0.32984391  2.6461799E-005
      0.34000000     0.031537744     0.032590478      0.33983927      0.33983918  2.8089862E-005
      0.35000000     0.031416628     0.032532289      0.34983455      0.34983445  2.9766527E-005
      0.36000000     0.031291999     0.032472414      0.35982983      0.35982972  3.1491793E-005
      0.37000000     0.031163857     0.032410852      0.36982511      0.36982499  3.3265661E-005
      0.38000000     0.031032202     0.032347603      0.37982039      0.37982026  3.5088131E-005
      0.39000000     0.030897034     0.032282668      0.38981567      0.38981553  3.6959203E-005
      0.40000000     0.030758354     0.032216047      0.39981095      0.39981080  3.8878877E-005
      0.41000000     0.030616160     0.032147739      0.40980623      0.40980607  4.0847154E-005
      0.42000000     0.030470454     0.032077744      0.41980152      0.41980134  4.2864033E-005
      0.43000000     0.030321234     0.032006063      0.42979680      0.42979661  4.4929516E-005
      0.44000000     0.030168502     0.031932696      0.43979208      0.43979188  4.7043602E-005
      0.45000000     0.030012258     0.031857642      0.44978737      0.44978715  4.9206291E-005
      0.46000000     0.029852500     0.031780901      0.45978265      0.45978242  5.1417584E-005
      0.47000000     0.029689230     0.031702474      0.46977794      0.46977769  5.3677482E-005
      0.48000000     0.029522447     0.031622361      0.47977322      0.47977296  5.5985983E-005
      0.49000000     0.029352152     0.031540561      0.48976851      0.48976823  5.8343089E-005
      0.50000000     0.029178343     0.031457075      0.49976380      0.49976350  6.0748801E-005
      0.51000000     0.029001023     0.031371902      0.50975909      0.50975876  6.3203117E-005
      0.52000000     0.028820189     0.031285043      0.51975438      0.51975403  6.5706039E-005
      0.53000000     0.028635844     0.031196497      0.52974967      0.52974930  6.8257566E-005
      0.54000000     0.028447985     0.031106265      0.53974496      0.53974457  7.0857700E-005
      0.55000000     0.028256615     0.031014347      0.54974025      0.54973984  7.3506440E-005
      0.56000000     0.028061731     0.030920742      0.55973554      0.55973511  7.6203787E-005
      0.57000000     0.027863336     0.030825451      0.56973083      0.56973038  7.8949741E-005
      0.58000000     0.027661428     0.030728474      0.57972613      0.57972565  8.1744303E-005
      0.59000000     0.027456007     0.030629810      0.58972142      0.58972092  8.4587472E-005
      0.60000000     0.027247075     0.030529460      0.59971672      0.59971619  8.7479249E-005
      0.61000000     0.027034630     0.030427423      0.60971202      0.60971146  9.0419635E-005
      0.62000000     0.026818673     0.030323701      0.61970731      0.61970673  9.3408630E-005
      0.63000000     0.026599203     0.030218291      0.62970261      0.62970200  9.6446234E-005
      0.64000000     0.026376222     0.030111196      0.63969791      0.63969727  9.9532447E-005
      0.65000000     0.026149728     0.030002415      0.64969321      0.64969254  1.0266727E-004
      0.66000000     0.025919723     0.029891947      0.65968851      0.65968781  1.0585070E-004
      0.67000000     0.025686205     0.029779793      0.66968381      0.66968308  1.0908275E-004
      0.68000000     0.025449175     0.029665952      0.67967912      0.67967835  1.1236340E-004
      0.69000000     0.025208634     0.029550426      0.68967442      0.68967362  1.1569267E-004
      0.70000000     0.024964580     0.029433213      0.69966973      0.69966889  1.1907055E-004
      0.71000000     0.024717014     0.029314314      0.70966503      0.70966416  1.2249704E-004
      0.72000000     0.024465937     0.029193729      0.71966034      0.71965943  1.2597214E-004
      0.73000000     0.024211348     0.029071457      0.72965565      0.72965470  1.2949586E-004
      0.74000000     0.023953247     0.028947500      0.73965096      0.73964997  1.3306819E-004
      0.75000000     0.023691635     0.028821856      0.74964627      0.74964524  1.3668914E-004
      0.76000000     0.023426510     0.028694526      0.75964158      0.75964051  1.4035870E-004
      0.77000000     0.023157875     0.028565510      0.76963689      0.76963578  1.4407687E-004
      0.78000000     0.022885727     0.028434808      0.77963220      0.77963105  1.4784366E-004
      0.79000000     0.022610068     0.028302420      0.78962752      0.78962632  1.5165906E-004
      0.80000000     0.022330898     0.028168346      0.79962284      0.79962159  1.5552308E-004
      0.81000000     0.022048216     0.028032586      0.80961815      0.80961686  1.5943572E-004
      0.82000000     0.021762023     0.027895140      0.81961347      0.81961213  1.6339698E-004
      0.83000000     0.021472318     0.027756008      0.82960879      0.82960740  1.6740685E-004
      0.84000000     0.021179102     0.027615189      0.83960411      0.83960267  1.7146534E-004
      0.85000000     0.020882375     0.027472685      0.84959943      0.84959794  1.7557245E-004
      0.86000000     0.020582137     0.027328495      0.85959476      0.85959321  1.7972818E-004
      0.87000000     0.020278387     0.027182619      0.86959008      0.86958848  1.8393253E-004
      0.88000000     0.019971127     0.027035057      0.87958541      0.87958375  1.8818550E-004
      0.89000000     0.019660355     0.026885809      0.88958073      0.88957902  1.9248709E-004
      0.90000000     0.019346073     0.026734875      0.89957606      0.89957429  1.9683730E-004
      0.91000000     0.019028279     0.026582255      0.90957139      0.90956956  2.0123613E-004
      0.92000000     0.018706975     0.026427949      0.91956672      0.91956483  2.0568359E-004
      0.93000000     0.018382159     0.026271958      0.92956205      0.92956010  2.1017967E-004
      0.94000000     0.018053834     0.026114280      0.93955739      0.93955537  2.1472437E-004
      0.95000000     0.017721997     0.025954917      0.94955272      0.94955064  2.1931769E-004
      0.96000000     0.017386649     0.025793868      0.95954806      0.95954591  2.2395964E-004
      0.97000000     0.017047792     0.025631133      0.96954340      0.96954118  2.2865022E-004
      0.98000000     0.016705423     0.025466713      0.97953874      0.97953645  2.3338942E-004
      0.99000000     0.016359544     0.025300607      0.98953408      0.98953172  2.3817724E-004
       1.0000000     0.016010155     0.025132815      0.99952942      0.99952699  2.4301370E-004

Table series: Data for wavelength : 0.555000 µm.
        Y Height       Tan Shift       Sag Shift     Real Height     Ref. Height      Distortion
  --------------  --------------  --------------  --------------  --------------  --------------
      0.00000000     0.049867454     0.049867454      0.00000000      0.00000000      0.00000000
     0.010000000     0.049865801     0.049866611  9.9950995E-003  9.9950995E-003  2.4152369E-008
     0.020000000     0.049860634     0.049864082     0.019990199     0.019990199  9.6609529E-008
     0.030000000     0.049851955     0.049859866     0.029985299     0.029985298  2.1737153E-007
     0.040000000     0.049839763     0.049853964     0.039980398     0.039980398  3.8643834E-007
     0.050000000     0.049824058     0.049846376     0.049975498     0.049975497  6.0380997E-007
     0.060000000     0.049804840     0.049837102     0.059970597     0.059970597  8.6948650E-007
     0.070000000     0.049782110     0.049826142     0.069965697     0.069965696  1.1834679E-006
     0.080000000     0.049755866     0.049813495     0.079960797     0.079960796  1.5457542E-006
     0.090000000     0.049726110     0.049799162     0.089955897     0.089955895  1.9563455E-006
      0.10000000     0.049692841     0.049783143     0.099950997     0.099950995  2.4152419E-006
      0.11000000     0.049656059     0.049765437      0.10994610      0.10994609  2.9224433E-006
      0.12000000     0.049615764     0.049746046      0.11994120      0.11994119  3.4779499E-006
      0.13000000     0.049571957     0.049724968      0.12993630      0.12993629  4.0817616E-006
      0.14000000     0.049524636     0.049702204      0.13993140      0.13993139  4.7338787E-006
      0.15000000     0.049473803     0.049677754      0.14992650      0.14992649  5.4343011E-006
      0.16000000     0.049419457     0.049651617      0.15992160      0.15992159  6.1830291E-006
      0.17000000     0.049361598     0.049623795      0.16991670      0.16991669  6.9800625E-006
      0.18000000     0.049300227     0.049594286      0.17991180      0.17991179  7.8254016E-006
      0.19000000     0.049235343     0.049563091      0.18990691      0.18990689  8.7190464E-006
      0.20000000     0.049166945     0.049530210      0.19990201      0.19990199  9.6609970E-006
      0.21000000     0.049095036     0.049495642      0.20989711      0.20989709  1.0651254E-005
      0.22000000     0.049019613     0.049459388      0.21989221      0.21989219  1.1689816E-005
      0.23000000     0.048940678     0.049421449      0.22988732      0.22988729  1.2776685E-005
      0.24000000     0.048858230     0.049381823      0.23988242      0.23988239  1.3911861E-005
      0.25000000     0.048772269     0.049340511      0.24987752      0.24987749  1.5095343E-005
      0.26000000     0.048682796     0.049297512      0.25987263      0.25987259  1.6327131E-005
      0.27000000     0.048589810     0.049252828      0.26986773      0.26986769  1.7607226E-005
      0.28000000     0.048493312     0.049206457      0.27986284      0.27986279  1.8935628E-005
      0.29000000     0.048393301     0.049158400      0.28985794      0.28985789  2.0312338E-005
      0.30000000     0.048289777     0.049108657      0.29985305      0.29985298  2.1737354E-005
      0.31000000     0.048182740     0.049057228      0.30984816      0.30984808  2.3210678E-005
      0.32000000     0.048072191     0.049004113      0.31984326      0.31984318  2.4732310E-005
      0.33000000     0.047958130     0.048949312      0.32983837      0.32983828  2.6302249E-005
      0.34000000     0.047840556     0.048892824      0.33983348      0.33983338  2.7920496E-005
      0.35000000     0.047719469     0.048834651      0.34982859      0.34982848  2.9587052E-005
      0.36000000     0.047594870     0.048774791      0.35982369      0.35982358  3.1301916E-005
      0.37000000     0.047466759     0.048713245      0.36981880      0.36981868  3.3065089E-005
      0.38000000     0.047335135     0.048650013      0.37981391      0.37981378  3.4876570E-005
      0.39000000     0.047199998     0.048585095      0.38980902      0.38980888  3.6736361E-005
      0.40000000     0.047061350     0.048518491      0.39980413      0.39980398  3.8644460E-005
      0.41000000     0.046919188     0.048450201      0.40979925      0.40979908  4.0600870E-005
      0.42000000     0.046773515     0.048380225      0.41979436      0.41979418  4.2605589E-005
      0.43000000     0.046624329     0.048308562      0.42978947      0.42978928  4.4658618E-005
      0.44000000     0.046471631     0.048235214      0.43978458      0.43978438  4.6759957E-005
      0.45000000     0.046315420     0.048160180      0.44977970      0.44977948  4.8909607E-005
      0.46000000     0.046155698     0.048083459      0.45977481      0.45977458  5.1107567E-005
      0.47000000     0.045992463     0.048005053      0.46976993      0.46976968  5.3353839E-005
      0.48000000     0.045825716     0.047924960      0.47976504      0.47976478  5.5648422E-005
      0.49000000     0.045655456     0.047843182      0.48976016      0.48975987  5.7991316E-005
      0.50000000     0.045481685     0.047759717      0.49975528      0.49975497  6.0382523E-005
      0.51000000     0.045304401     0.047674567      0.50975039      0.50975007  6.2822041E-005
      0.52000000     0.045123606     0.047587730      0.51974551      0.51974517  6.5309872E-005
      0.53000000     0.044939298     0.047499208      0.52974063      0.52974027  6.7846016E-005
      0.54000000     0.044751478     0.047409000      0.53973575      0.53973537  7.0430473E-005
      0.55000000     0.044560147     0.047317105      0.54973087      0.54973047  7.3063243E-005
      0.56000000     0.044365303     0.047223525      0.55972600      0.55972557  7.5744327E-005
      0.57000000     0.044166947     0.047128259      0.56972112      0.56972067  7.8473725E-005
      0.58000000     0.043965080     0.047031307      0.57971624      0.57971577  8.1251437E-005
      0.59000000     0.043759701     0.046932669      0.58971137      0.58971087  8.4077464E-005
      0.60000000     0.043550809     0.046832345      0.59970649      0.59970597  8.6951806E-005
      0.61000000     0.043338406     0.046730335      0.60970162      0.60970107  8.9874464E-005
      0.62000000     0.043122492     0.046626640      0.61969674      0.61969617  9.2845437E-005
      0.63000000     0.042903065     0.046521258      0.62969187      0.62969127  9.5864727E-005
      0.64000000     0.042680127     0.046414191      0.63968700      0.63968637  9.8932333E-005
      0.65000000     0.042453677     0.046305438      0.64968213      0.64968147  1.0204826E-004
      0.66000000     0.042223716     0.046194999      0.65967726      0.65967657  1.0521250E-004
      0.67000000     0.041990243     0.046082874      0.66967239      0.66967167  1.0842505E-004
      0.68000000     0.041753259     0.045969063      0.67966752      0.67966677  1.1168593E-004
      0.69000000     0.041512763     0.045853567      0.68966266      0.68966186  1.1499512E-004
      0.70000000     0.041268755     0.045736385      0.69965779      0.69965696  1.1835264E-004
      0.71000000     0.041021237     0.045617517      0.70965293      0.70965206  1.2175847E-004
      0.72000000     0.040770207     0.045496963      0.71964806      0.71964716  1.2521262E-004
      0.73000000     0.040515665     0.045374724      0.72964320      0.72964226  1.2871509E-004
      0.74000000     0.040257612     0.045250799      0.73963834      0.73963736  1.3226588E-004
      0.75000000     0.039996048     0.045125188      0.74963348      0.74963246  1.3586500E-004
      0.76000000     0.039730973     0.044997891      0.75962862      0.75962756  1.3951243E-004
      0.77000000     0.039462387     0.044868909      0.76962376      0.76962266  1.4320819E-004
      0.78000000     0.039190290     0.044738241      0.77961891      0.77961776  1.4695227E-004
      0.79000000     0.038914681     0.044605888      0.78961405      0.78961286  1.5074467E-004
      0.80000000     0.038635562     0.044471849      0.79960920      0.79960796  1.5458540E-004
      0.81000000     0.038352931     0.044336124      0.80960434      0.80960306  1.5847444E-004
      0.82000000     0.038066790     0.044198714      0.81959949      0.81959816  1.6241182E-004
      0.83000000     0.037777138     0.044059618      0.82959464      0.82959326  1.6639751E-004
      0.84000000     0.037483975     0.043918837      0.83958979      0.83958836  1.7043154E-004
      0.85000000     0.037187301     0.043776370      0.84958494      0.84958346  1.7451388E-004
      0.86000000     0.036887117     0.043632217      0.85958009      0.85957856  1.7864456E-004
      0.87000000     0.036583422     0.043486379      0.86957525      0.86957366  1.8282356E-004
      0.88000000     0.036276216     0.043338855      0.87957040      0.87956876  1.8705089E-004
      0.89000000     0.035965500     0.043189646      0.88956556      0.88956385  1.9132654E-004
      0.90000000     0.035651273     0.043038752      0.89956071      0.89955895  1.9565053E-004
      0.91000000     0.035333536     0.042886172      0.90955587      0.90955405  2.0002284E-004
      0.92000000     0.035012288     0.042731907      0.91955103      0.91954915  2.0444348E-004
      0.93000000     0.034687530     0.042575956      0.92954619      0.92954425  2.0891245E-004
      0.94000000     0.034359262     0.042418320      0.93954136      0.93953935  2.1342975E-004
      0.95000000     0.034027483     0.042258998      0.94953652      0.94953445  2.1799539E-004
      0.96000000     0.033692194     0.042097991      0.95953169      0.95952955  2.2260935E-004
      0.97000000     0.033353396     0.041935299      0.96952685      0.96952465  2.2727165E-004
      0.98000000     0.033011087     0.041770922      0.97952202      0.97951975  2.3198227E-004
      0.99000000     0.032665268     0.041604859      0.98951719      0.98951485  2.3674124E-004
       1.0000000     0.032315939     0.041437111      0.99951236      0.99950995  2.4154853E-004

Table series: Data for wavelength : 0.600000 µm.
        Y Height       Tan Shift       Sag Shift     Real Height     Ref. Height      Distortion
  --------------  --------------  --------------  --------------  --------------  --------------
      0.00000000     0.068120837     0.068120837      0.00000000      0.00000000      0.00000000
     0.010000000     0.068119194     0.068119994  9.9949656E-003  9.9949656E-003  2.4036824E-008
     0.020000000     0.068114037     0.068117465     0.019989931     0.019989931  9.6147263E-008
     0.030000000     0.068105369     0.068113250     0.029984897     0.029984897  2.1633119E-007
     0.040000000     0.068093187     0.068107349     0.039979862     0.039979862  3.8458889E-007
     0.050000000     0.068077493     0.068099762     0.049974828     0.049974828  6.0092020E-007
     0.060000000     0.068058286     0.068090489     0.059969794     0.059969793  8.6532516E-007
     0.070000000     0.068035566     0.068079530     0.069964760     0.069964759  1.1778038E-006
     0.080000000     0.068009334     0.068066885     0.079959726     0.079959725  1.5383563E-006
     0.090000000     0.067979589     0.068052554     0.089954692     0.089954690  1.9469825E-006
      0.10000000     0.067946332     0.068036537     0.099949658     0.099949656  2.4036826E-006
      0.11000000     0.067909561     0.068018834      0.10994462      0.10994462  2.9084566E-006
      0.12000000     0.067869278     0.067999445      0.11993959      0.11993959  3.4613044E-006
      0.13000000     0.067825483     0.067978370      0.12993456      0.12993455  4.0622264E-006
      0.14000000     0.067778175     0.067955609      0.13992952      0.13992952  4.7112225E-006
      0.15000000     0.067727354     0.067931162      0.14992449      0.14992448  5.4082927E-006
      0.16000000     0.067673020     0.067905030      0.15991946      0.15991945  6.1534372E-006
      0.17000000     0.067615174     0.067877211      0.16991443      0.16991441  6.9466560E-006
      0.18000000     0.067553815     0.067847706      0.17990939      0.17990938  7.7879493E-006
      0.19000000     0.067488944     0.067816515      0.18990436      0.18990435  8.6773172E-006
      0.20000000     0.067420560     0.067783638      0.19989933      0.19989931  9.6147597E-006
      0.21000000     0.067348664     0.067749076      0.20989430      0.20989428  1.0600277E-005
      0.22000000     0.067273255     0.067712827      0.21988927      0.21988924  1.1633869E-005
      0.23000000     0.067194333     0.067674893      0.22988424      0.22988421  1.2715536E-005
      0.24000000     0.067111899     0.067635272      0.23987921      0.23987917  1.3845279E-005
      0.25000000     0.067025952     0.067593965      0.24987418      0.24987414  1.5023097E-005
      0.26000000     0.066936493     0.067550973      0.25986915      0.25986910  1.6248990E-005
      0.27000000     0.066843521     0.067506295      0.26986412      0.26986407  1.7522958E-005
      0.28000000     0.066747037     0.067459930      0.27985909      0.27985904  1.8845003E-005
      0.29000000     0.066647040     0.067411880      0.28985406      0.28985400  2.0215123E-005
      0.30000000     0.066543531     0.067362144      0.29984903      0.29984897  2.1633320E-005
      0.31000000     0.066436510     0.067310722      0.30984400      0.30984393  2.3099592E-005
      0.32000000     0.066325976     0.067257614      0.31983898      0.31983890  2.4613942E-005
      0.33000000     0.066211930     0.067202820      0.32983395      0.32983386  2.6176367E-005
      0.34000000     0.066094371     0.067146340      0.33982892      0.33982883  2.7786870E-005
      0.35000000     0.065973300     0.067088175      0.34982390      0.34982379  2.9445450E-005
      0.36000000     0.065848716     0.067028323      0.35981887      0.35981876  3.1152106E-005
      0.37000000     0.065720621     0.066966786      0.36981385      0.36981373  3.2906840E-005
      0.38000000     0.065589013     0.066903563      0.37980882      0.37980869  3.4709652E-005
      0.39000000     0.065453893     0.066838654      0.38980380      0.38980366  3.6560542E-005
      0.40000000     0.065315260     0.066772059      0.39979878      0.39979862  3.8459510E-005
      0.41000000     0.065173115     0.066703778      0.40979375      0.40979359  4.0406556E-005
      0.42000000     0.065027458     0.066633811      0.41978873      0.41978855  4.2401681E-005
      0.43000000     0.064878289     0.066562159      0.42978371      0.42978352  4.4444884E-005
      0.44000000     0.064725608     0.066488820      0.43977869      0.43977848  4.6536167E-005
      0.45000000     0.064569415     0.066413796      0.44977367      0.44977345  4.8675528E-005
      0.46000000     0.064409709     0.066337086      0.45976865      0.45976842  5.0862970E-005
      0.47000000     0.064246492     0.066258691      0.46976363      0.46976338  5.3098491E-005
      0.48000000     0.064079762     0.066178609      0.47975861      0.47975835  5.5382092E-005
      0.49000000     0.063909521     0.066096842      0.48975360      0.48975331  5.7713774E-005
      0.50000000     0.063735767     0.066013389      0.49974858      0.49974828  6.0093536E-005
      0.51000000     0.063558502     0.065928250      0.50974356      0.50974324  6.2521379E-005
      0.52000000     0.063377724     0.065841426      0.51973855      0.51973821  6.4997304E-005
      0.53000000     0.063193435     0.065752915      0.52973353      0.52973317  6.7521310E-005
      0.54000000     0.063005634     0.065662719      0.53972852      0.53972814  7.0093398E-005
      0.55000000     0.062814321     0.065570838      0.54972351      0.54972311  7.2713568E-005
      0.56000000     0.062619496     0.065477270      0.55971849      0.55971807  7.5381821E-005
      0.57000000     0.062421159     0.065382017      0.56971348      0.56971304  7.8098156E-005
      0.58000000     0.062219311     0.065285078      0.57970847      0.57970800  8.0862575E-005
      0.59000000     0.062013951     0.065186454      0.58970346      0.58970297  8.3675077E-005
      0.60000000     0.061805080     0.065086144      0.59969845      0.59969793  8.6535663E-005
      0.61000000     0.061592696     0.064984148      0.60969344      0.60969290  8.9444334E-005
      0.62000000     0.061376801     0.064880466      0.61968844      0.61968786  9.2401088E-005
      0.63000000     0.061157395     0.064775099      0.62968343      0.62968283  9.5405928E-005
      0.64000000     0.060934477     0.064668047      0.63967843      0.63967780  9.8458853E-005
      0.65000000     0.060708048     0.064559308      0.64967342      0.64967276  1.0155986E-004
      0.66000000     0.060478107     0.064448885      0.65966842      0.65966773  1.0470896E-004
      0.67000000     0.060244654     0.064336775      0.66966342      0.66966269  1.0790614E-004
      0.68000000     0.060007691     0.064222980      0.67965841      0.67965766  1.1115141E-004
      0.69000000     0.059767216     0.064107500      0.68965341      0.68965262  1.1444477E-004
      0.70000000     0.059523230     0.063990333      0.69964841      0.69964759  1.1778622E-004
      0.71000000     0.059275732     0.063871482      0.70964341      0.70964256  1.2117575E-004
      0.72000000     0.059024723     0.063750945      0.71963842      0.71963752  1.2461337E-004
      0.73000000     0.058770203     0.063628722      0.72963342      0.72963249  1.2809908E-004
      0.74000000     0.058512172     0.063504814      0.73962843      0.73962745  1.3163288E-004
      0.75000000     0.058250630     0.063379220      0.74962343      0.74962242  1.3521477E-004
      0.76000000     0.057985577     0.063251941      0.75961844      0.75961738  1.3884475E-004
      0.77000000     0.057717013     0.063122977      0.76961345      0.76961235  1.4252282E-004
      0.78000000     0.057444938     0.062992327      0.77960845      0.77960731  1.4624898E-004
      0.79000000     0.057169352     0.062859992      0.78960346      0.78960228  1.5002323E-004
      0.80000000     0.056890256     0.062725971      0.79959848      0.79959725  1.5384557E-004
      0.81000000     0.056607648     0.062590265      0.80959349      0.80959221  1.5771601E-004
      0.82000000     0.056321530     0.062452873      0.81958850      0.81958718  1.6163454E-004
      0.83000000     0.056031901     0.062313797      0.82958352      0.82958214  1.6560116E-004
      0.84000000     0.055738761     0.062173034      0.83957853      0.83957711  1.6961588E-004
      0.85000000     0.055442111     0.062030587      0.84957355      0.84957207  1.7367869E-004
      0.86000000     0.055141950     0.061886454      0.85956857      0.85956704  1.7778960E-004
      0.87000000     0.054838279     0.061740636      0.86956359      0.86956200  1.8194860E-004
      0.88000000     0.054531097     0.061593133      0.87955861      0.87955697  1.8615570E-004
      0.89000000     0.054220405     0.061443944      0.88955363      0.88955194  1.9041089E-004
      0.90000000     0.053906202     0.061293070      0.89954865      0.89954690  1.9471418E-004
      0.91000000     0.053588490     0.061140511      0.90954368      0.90954187  1.9906557E-004
      0.92000000     0.053267267     0.060986267      0.91953870      0.91953683  2.0346506E-004
      0.93000000     0.052942533     0.060830338      0.92953373      0.92953180  2.0791264E-004
      0.94000000     0.052614290     0.060672723      0.93952876      0.93952676  2.1240833E-004
      0.95000000     0.052282537     0.060513424      0.94952379      0.94952173  2.1695211E-004
      0.96000000     0.051947273     0.060352439      0.95951882      0.95951669  2.2154399E-004
      0.97000000     0.051608500     0.060189769      0.96951385      0.96951166  2.2618398E-004
      0.98000000     0.051266216     0.060025414      0.97950889      0.97950663  2.3087206E-004
      0.99000000     0.050920423     0.059859374      0.98950392      0.98950159  2.3560825E-004
       1.0000000     0.050571120     0.059691649      0.99949896      0.99949656  2.4039254E-004

Table series: Data for wavelength : 0.800000 µm.
        Y Height       Tan Shift       Sag Shift     Real Height     Ref. Height      Distortion
  --------------  --------------  --------------  --------------  --------------  --------------
      0.00000000      0.12915313      0.12915313      0.00000000      0.00000000      0.00000000
     0.010000000      0.12915151      0.12915229  9.9946075E-003  9.9946075E-003  2.3723948E-008
     0.020000000      0.12914638      0.12914976     0.019989215     0.019989215  9.4895600E-008
     0.030000000      0.12913774      0.12914555     0.029983822     0.029983822  2.1351525E-007
     0.040000000      0.12912559      0.12913965     0.039978430     0.039978430  3.7958257E-007
     0.050000000      0.12910992      0.12913206     0.049973038     0.049973037  5.9309793E-007
     0.060000000      0.12909074      0.12912279     0.059967645     0.059967645  8.5406096E-007
     0.070000000      0.12906805      0.12911183     0.069962253     0.069962252  1.1624721E-006
     0.080000000      0.12904184      0.12909919     0.079956861     0.079956860  1.5183312E-006
     0.090000000      0.12901212      0.12908486     0.089951469     0.089951467  1.9216381E-006
      0.10000000      0.12897889      0.12906885     0.099946077     0.099946075  2.3723933E-006
      0.11000000      0.12894214      0.12905115      0.10994069      0.10994068  2.8705965E-006
      0.12000000      0.12890189      0.12903177      0.11993529      0.11993529  3.4162478E-006
      0.13000000      0.12885812      0.12901070      0.12992990      0.12992990  4.0093474E-006
      0.14000000      0.12881084      0.12898794      0.13992451      0.13992450  4.6498954E-006
      0.15000000      0.12876004      0.12896350      0.14991912      0.14991911  5.3378916E-006
      0.16000000      0.12870573      0.12893737      0.15991373      0.15991372  6.0733365E-006
      0.17000000      0.12864791      0.12890956      0.16990834      0.16990833  6.8562298E-006
      0.18000000      0.12858658      0.12888006      0.17990295      0.17990293  7.6865718E-006
      0.19000000      0.12852173      0.12884888      0.18989756      0.18989754  8.5643625E-006
      0.20000000      0.12845338      0.12881601      0.19989217      0.19989215  9.4896022E-006
      0.21000000      0.12838151      0.12878145      0.20988678      0.20988676  1.0462291E-005
      0.22000000      0.12830612      0.12874521      0.21988139      0.21988136  1.1482429E-005
      0.23000000      0.12822723      0.12870728      0.22987600      0.22987597  1.2550016E-005
      0.24000000      0.12814482      0.12866767      0.23987061      0.23987058  1.3665052E-005
      0.25000000      0.12805890      0.12862637      0.24986522      0.24986519  1.4827538E-005
      0.26000000      0.12796946      0.12858339      0.25985984      0.25985979  1.6037473E-005
      0.27000000      0.12787652      0.12853872      0.26985445      0.26985440  1.7294858E-005
      0.28000000      0.12778006      0.12849237      0.27984906      0.27984901  1.8599694E-005
      0.29000000      0.12768009      0.12844433      0.28984367      0.28984362  1.9951979E-005
      0.30000000      0.12757660      0.12839460      0.29983829      0.29983822  2.1351715E-005
      0.31000000      0.12746961      0.12834319      0.30983290      0.30983283  2.2798901E-005
      0.32000000      0.12735910      0.12829010      0.31982752      0.31982744  2.4293537E-005
      0.33000000      0.12724508      0.12823531      0.32982213      0.32982205  2.5835625E-005
      0.34000000      0.12712754      0.12817885      0.33981675      0.33981665  2.7425163E-005
      0.35000000      0.12700650      0.12812069      0.34981136      0.34981126  2.9062153E-005
      0.36000000      0.12688194      0.12806086      0.35980598      0.35980587  3.0746594E-005
      0.37000000      0.12675387      0.12799933      0.36980060      0.36980048  3.2478487E-005
      0.38000000      0.12662229      0.12793612      0.37979521      0.37979508  3.4257831E-005
      0.39000000      0.12648719      0.12787123      0.38978983      0.38978969  3.6084628E-005
      0.40000000      0.12634858      0.12780465      0.39978445      0.39978430  3.7958877E-005
      0.41000000      0.12620646      0.12773638      0.40977907      0.40977891  3.9880578E-005
      0.42000000      0.12606083      0.12766643      0.41977369      0.41977351  4.1849732E-005
      0.43000000      0.12591169      0.12759479      0.42976831      0.42976812  4.3866339E-005
      0.44000000      0.12575903      0.12752147      0.43976293      0.43976273  4.5930399E-005
      0.45000000      0.12560286      0.12744646      0.44975755      0.44975734  4.8041913E-005
      0.46000000      0.12544318      0.12736977      0.45975217      0.45975194  5.0200880E-005
      0.47000000      0.12527999      0.12729139      0.46974680      0.46974655  5.2407302E-005
      0.48000000      0.12511328      0.12721133      0.47974142      0.47974116  5.4661178E-005
      0.49000000      0.12494307      0.12712958      0.48973604      0.48973577  5.6962508E-005
      0.50000000      0.12476934      0.12704614      0.49973067      0.49973037  5.9311293E-005
      0.51000000      0.12459210      0.12696102      0.50972530      0.50972498  6.1707533E-005
      0.52000000      0.12441134      0.12687422      0.51971992      0.51971959  6.4151229E-005
      0.53000000      0.12422708      0.12678572      0.52971455      0.52971420  6.6642381E-005
      0.54000000      0.12403930      0.12669555      0.53970918      0.53970880  6.9180988E-005
      0.55000000      0.12384801      0.12660369      0.54970381      0.54970341  7.1767052E-005
      0.56000000      0.12365321      0.12651014      0.55969843      0.55969802  7.4400572E-005
      0.57000000      0.12345490      0.12641491      0.56969306      0.56969263  7.7081550E-005
      0.58000000      0.12325308      0.12631799      0.57968770      0.57968723  7.9809984E-005
      0.59000000      0.12304774      0.12621939      0.58968233      0.58968184  8.2585877E-005
      0.60000000      0.12283889      0.12611910      0.59967696      0.59967645  8.5409227E-005
      0.61000000      0.12262653      0.12601712      0.60967159      0.60967106  8.8280036E-005
      0.62000000      0.12241066      0.12591347      0.61966623      0.61966566  9.1198303E-005
      0.63000000      0.12219128      0.12580812      0.62966086      0.62966027  9.4164030E-005
      0.64000000      0.12196839      0.12570109      0.63965550      0.63965488  9.7177216E-005
      0.65000000      0.12174198      0.12559238      0.64965014      0.64964949  1.0023786E-004
      0.66000000      0.12151206      0.12548198      0.65964477      0.65964409  1.0334597E-004
      0.67000000      0.12127864      0.12536989      0.66963941      0.66963870  1.0650153E-004
      0.68000000      0.12104170      0.12525612      0.67963405      0.67963331  1.0970456E-004
      0.69000000      0.12080124      0.12514067      0.68962869      0.68962792  1.1295505E-004
      0.70000000      0.12055728      0.12502353      0.69962334      0.69962252  1.1625300E-004
      0.71000000      0.12030981      0.12490470      0.70961798      0.70961713  1.1959841E-004
      0.72000000      0.12005882      0.12478419      0.71961262      0.71961174  1.2299129E-004
      0.73000000      0.11980433      0.12466199      0.72960727      0.72960635  1.2643163E-004
      0.74000000      0.11954632      0.12453811      0.73960191      0.73960095  1.2991943E-004
      0.75000000      0.11928480      0.12441255      0.74959656      0.74959556  1.3345469E-004
      0.76000000      0.11901977      0.12428530      0.75959121      0.75959017  1.3703742E-004
      0.77000000      0.11875123      0.12415636      0.76958586      0.76958477  1.4066762E-004
      0.78000000      0.11847918      0.12402574      0.77958051      0.77957938  1.4434528E-004
      0.79000000      0.11820362      0.12389343      0.78957516      0.78957399  1.4807040E-004
      0.80000000      0.11792454      0.12375944      0.79956981      0.79956860  1.5184299E-004
      0.81000000      0.11764196      0.12362376      0.80956446      0.80956320  1.5566305E-004
      0.82000000      0.11735586      0.12348640      0.81955912      0.81955781  1.5953058E-004
      0.83000000      0.11706626      0.12334735      0.82955378      0.82955242  1.6344557E-004
      0.84000000      0.11677314      0.12320662      0.83954843      0.83954703  1.6740803E-004
      0.85000000      0.11647652      0.12306421      0.84954309      0.84954163  1.7141796E-004
      0.86000000      0.11617638      0.12292010      0.85953775      0.85953624  1.7547535E-004
      0.87000000      0.11587273      0.12277432      0.86953241      0.86953085  1.7958022E-004
      0.88000000      0.11556557      0.12262685      0.87952707      0.87952546  1.8373256E-004
      0.89000000      0.11525490      0.12247769      0.88952174      0.88952006  1.8793237E-004
      0.90000000      0.11494072      0.12232685      0.89951640      0.89951467  1.9217964E-004
      0.91000000      0.11462303      0.12217432      0.90951107      0.90950928  1.9647439E-004
      0.92000000      0.11430183      0.12202011      0.91950573      0.91950389  2.0081662E-004
      0.93000000      0.11397712      0.12186422      0.92950040      0.92949849  2.0520631E-004
      0.94000000      0.11364890      0.12170664      0.93949507      0.93949310  2.0964348E-004
      0.95000000      0.11331717      0.12154737      0.94948974      0.94948771  2.1412812E-004
      0.96000000      0.11298193      0.12138642      0.95948441      0.95948232  2.1866023E-004
      0.97000000      0.11264318      0.12122379      0.96947909      0.96947692  2.2323983E-004
      0.98000000      0.11230092      0.12105947      0.97947376      0.97947153  2.2786689E-004
      0.99000000      0.11195515      0.12089347      0.98946844      0.98946614  2.3254143E-004
       1.0000000      0.11160587      0.12072578      0.99946312      0.99946075  2.3726345E-004

Table series: Data for wavelength : 1.100000 µm.
        Y Height       Tan Shift       Sag Shift     Real Height     Ref. Height      Distortion
  --------------  --------------  --------------  --------------  --------------  --------------
      0.00000000      0.15156016      0.15156016      0.00000000      0.00000000      0.00000000
     0.010000000      0.15155856      0.15155931  9.9943511E-003  9.9943511E-003  2.3490844E-008
     0.020000000      0.15155345      0.15155679     0.019988702     0.019988702  9.3963306E-008
     0.030000000      0.15154483      0.15155257     0.029983053     0.029983053  2.1141734E-007
     0.040000000      0.15153270      0.15154668     0.039977404     0.039977404  3.7585303E-007
     0.050000000      0.15151706      0.15153909     0.049971756     0.049971755  5.8727047E-007
     0.060000000      0.15149791      0.15152983     0.059966107     0.059966106  8.4566949E-007
     0.070000000      0.15147524      0.15151888     0.069960458     0.069960457  1.1510503E-006
     0.080000000      0.15144906      0.15150624     0.079954810     0.079954808  1.5034129E-006
     0.090000000      0.15141937      0.15149192     0.089949161     0.089949160  1.9027572E-006
      0.10000000      0.15138617      0.15147591     0.099943513     0.099943511  2.3490834E-006
      0.11000000      0.15134946      0.15145822      0.10993786      0.10993786  2.8423916E-006
      0.12000000      0.15130923      0.15143884      0.11993222      0.11993221  3.3826816E-006
      0.13000000      0.15126549      0.15141778      0.12992657      0.12992656  3.9699538E-006
      0.14000000      0.15121825      0.15139504      0.13992092      0.13992091  4.6042081E-006
      0.15000000      0.15116748      0.15137061      0.14991527      0.14991527  5.2854445E-006
      0.16000000      0.15111321      0.15134449      0.15990963      0.15990962  6.0136632E-006
      0.17000000      0.15105543      0.15131669      0.16990398      0.16990397  6.7888643E-006
      0.18000000      0.15099413      0.15128720      0.17989833      0.17989832  7.6110478E-006
      0.19000000      0.15092932      0.15125603      0.18989269      0.18989267  8.4802140E-006
      0.20000000      0.15086100      0.15122318      0.19988704      0.19988702  9.3963628E-006
      0.21000000      0.15078917      0.15118864      0.20988139      0.20988137  1.0359494E-005
      0.22000000      0.15071383      0.15115241      0.21987575      0.21987572  1.1369609E-005
      0.23000000      0.15063497      0.15111450      0.22987010      0.22987007  1.2426706E-005
      0.24000000      0.15055261      0.15107491      0.23986446      0.23986443  1.3530787E-005
      0.25000000      0.15046673      0.15103363      0.24985881      0.24985878  1.4681851E-005
      0.26000000      0.15037734      0.15099067      0.25985317      0.25985313  1.5879898E-005
      0.27000000      0.15028444      0.15094602      0.26984752      0.26984748  1.7124929E-005
      0.28000000      0.15018802      0.15089968      0.27984188      0.27984183  1.8416944E-005
      0.29000000      0.15008810      0.15085166      0.28983624      0.28983618  1.9755943E-005
      0.30000000      0.14998466      0.15080196      0.29983060      0.29983053  2.1141925E-005
      0.31000000      0.14987771      0.15075057      0.30982495      0.30982488  2.2574892E-005
      0.32000000      0.14976725      0.15069750      0.31981931      0.31981923  2.4054844E-005
      0.33000000      0.14965328      0.15064274      0.32981367      0.32981358  2.5581780E-005
      0.34000000      0.14953580      0.15058630      0.33980803      0.33980794  2.7155700E-005
      0.35000000      0.14941480      0.15052817      0.34980239      0.34980229  2.8776606E-005
      0.36000000      0.14929030      0.15046836      0.35979675      0.35979664  3.0444497E-005
      0.37000000      0.14916228      0.15040686      0.36979111      0.36979099  3.2159373E-005
      0.38000000      0.14903075      0.15034368      0.37978547      0.37978534  3.3921235E-005
      0.39000000      0.14889571      0.15027881      0.38977983      0.38977969  3.5730083E-005
      0.40000000      0.14875716      0.15021226      0.39977419      0.39977404  3.7585917E-005
      0.41000000      0.14861510      0.15014403      0.40976856      0.40976839  3.9488737E-005
      0.42000000      0.14846952      0.15007411      0.41976292      0.41976274  4.1438543E-005
      0.43000000      0.14832044      0.15000250      0.42975728      0.42975710  4.3435337E-005
      0.44000000      0.14816784      0.14992921      0.43975165      0.43975145  4.5479117E-005
      0.45000000      0.14801173      0.14985424      0.44974601      0.44974580  4.7569884E-005
      0.46000000      0.14785211      0.14977758      0.45974038      0.45974015  4.9707639E-005
      0.47000000      0.14768898      0.14969923      0.46973474      0.46973450  5.1892382E-005
      0.48000000      0.14752234      0.14961920      0.47972911      0.47972885  5.4124113E-005
      0.49000000      0.14735219      0.14953749      0.48972348      0.48972320  5.6402833E-005
      0.50000000      0.14717852      0.14945409      0.49971785      0.49971755  5.8728540E-005
      0.51000000      0.14700135      0.14936901      0.50971222      0.50971190  6.1101237E-005
      0.52000000      0.14682066      0.14928224      0.51970659      0.51970626  6.3520923E-005
      0.53000000      0.14663646      0.14919379      0.52970096      0.52970061  6.5987598E-005
      0.54000000      0.14644875      0.14910365      0.53969533      0.53969496  6.8501264E-005
      0.55000000      0.14625753      0.14901183      0.54968970      0.54968931  7.1061919E-005
      0.56000000      0.14606280      0.14891832      0.55968407      0.55968366  7.3669565E-005
      0.57000000      0.14586456      0.14882313      0.56967845      0.56967801  7.6324201E-005
      0.58000000      0.14566281      0.14872626      0.57967282      0.57967236  7.9025829E-005
      0.59000000      0.14545755      0.14862770      0.58966719      0.58966671  8.1774448E-005
      0.60000000      0.14524877      0.14852745      0.59966157      0.59966106  8.4570058E-005
      0.61000000      0.14503649      0.14842553      0.60965595      0.60965541  8.7412661E-005
      0.62000000      0.14482069      0.14832191      0.61965033      0.61964977  9.0302257E-005
      0.63000000      0.14460138      0.14821661      0.62964470      0.62964412  9.3238845E-005
      0.64000000      0.14437857      0.14810963      0.63963908      0.63963847  9.6222426E-005
      0.65000000      0.14415224      0.14800096      0.64963346      0.64963282  9.9253001E-005
      0.66000000      0.14392240      0.14789061      0.65962784      0.65962717  1.0233057E-004
      0.67000000      0.14368905      0.14777858      0.66962223      0.66962152  1.0545513E-004
      0.68000000      0.14345219      0.14766486      0.67961661      0.67961587  1.0862669E-004
      0.69000000      0.14321182      0.14754945      0.68961099      0.68961022  1.1184524E-004
      0.70000000      0.14296794      0.14743236      0.69960538      0.69960457  1.1511079E-004
      0.71000000      0.14272055      0.14731359      0.70959977      0.70959893  1.1842334E-004
      0.72000000      0.14246965      0.14719313      0.71959415      0.71959328  1.2178288E-004
      0.73000000      0.14221524      0.14707099      0.72958854      0.72958763  1.2518941E-004
      0.74000000      0.14195732      0.14694716      0.73958293      0.73958198  1.2864295E-004
      0.75000000      0.14169588      0.14682165      0.74957732      0.74957633  1.3214348E-004
      0.76000000      0.14143094      0.14669446      0.75957171      0.75957068  1.3569101E-004
      0.77000000      0.14116249      0.14656558      0.76956610      0.76956503  1.3928554E-004
      0.78000000      0.14089053      0.14643501      0.77956050      0.77955938  1.4292706E-004
      0.79000000      0.14061505      0.14630276      0.78955489      0.78955373  1.4661559E-004
      0.80000000      0.14033607      0.14616883      0.79954929      0.79954808  1.5035112E-004
      0.81000000      0.14005358      0.14603321      0.80954368      0.80954244  1.5413364E-004
      0.82000000      0.13976758      0.14589591      0.81953808      0.81953679  1.5796317E-004
      0.83000000      0.13947806      0.14575693      0.82953248      0.82953114  1.6183970E-004
      0.84000000      0.13918504      0.14561626      0.83952688      0.83952549  1.6576323E-004
      0.85000000      0.13888851      0.14547390      0.84952128      0.84951984  1.6973376E-004
      0.86000000      0.13858847      0.14532987      0.85951568      0.85951419  1.7375130E-004
      0.87000000      0.13828492      0.14518414      0.86951009      0.86950854  1.7781583E-004
      0.88000000      0.13797786      0.14503674      0.87950449      0.87950289  1.8192738E-004
      0.89000000      0.13766729      0.14488765      0.88949890      0.88949724  1.8608592E-004
      0.90000000      0.13735321      0.14473687      0.89949331      0.89949160  1.9029147E-004
      0.91000000      0.13703562      0.14458441      0.90948772      0.90948595  1.9454403E-004
      0.92000000      0.13671452      0.14443027      0.91948213      0.91948030  1.9884359E-004
      0.93000000      0.13638991      0.14427444      0.92947654      0.92947465  2.0319016E-004
      0.94000000      0.13606179      0.14411693      0.93947095      0.93946900  2.0758373E-004
      0.95000000      0.13573016      0.14395774      0.94946536      0.94946335  2.1202431E-004
      0.96000000      0.13539503      0.14379686      0.95945978      0.95945770  2.1651190E-004
      0.97000000      0.13505638      0.14363429      0.96945420      0.96945205  2.2104650E-004
      0.98000000      0.13471423      0.14347005      0.97944861      0.97944640  2.2562811E-004
      0.99000000      0.13436857      0.14330412      0.98944303      0.98944075  2.3025672E-004
       1.0000000      0.13401939      0.14313650      0.99943745      0.99943511  2.3493235E-004

Table series: Data for wavelength : 1.500000 µm.
        Y Height       Tan Shift       Sag Shift     Real Height     Ref. Height      Distortion
  --------------  --------------  --------------  --------------  --------------  --------------
      0.00000000      0.10180965      0.10180965      0.00000000      0.00000000      0.00000000
     0.010000000      0.10180808      0.10180881  9.9941421E-003  9.9941421E-003  2.3284904E-008
     0.020000000      0.10180301      0.10180629     0.019988284     0.019988284  9.3139770E-008
     0.030000000      0.10179442      0.10180208     0.029982426     0.029982426  2.0956440E-007
     0.040000000      0.10178233      0.10179619     0.039976568     0.039976568  3.7255905E-007
     0.050000000      0.10176672      0.10178862     0.049970711     0.049970710  5.8212363E-007
     0.060000000      0.10174761      0.10177936     0.059964853     0.059964852  8.3825806E-007
     0.070000000      0.10172499      0.10176843     0.069958995     0.069958994  1.1409625E-006
     0.080000000      0.10169886      0.10175580     0.079953138     0.079953136  1.4902370E-006
     0.090000000      0.10166923      0.10174150     0.089947280     0.089947279  1.8860816E-006
      0.10000000      0.10163608      0.10172551     0.099941423     0.099941421  2.3284962E-006
      0.11000000      0.10159943      0.10170784      0.10993557      0.10993556  2.8174810E-006
      0.12000000      0.10155927      0.10168849      0.11992971      0.11992970  3.3530359E-006
      0.13000000      0.10151560      0.10166746      0.12992385      0.12992385  3.9351613E-006
      0.14000000      0.10146842      0.10164474      0.13991800      0.13991799  4.5638570E-006
      0.15000000      0.10141773      0.10162034      0.14991214      0.14991213  5.2391231E-006
      0.16000000      0.10136354      0.10159426      0.15990628      0.15990627  5.9609599E-006
      0.17000000      0.10130583      0.10156649      0.16990043      0.16990041  6.7293671E-006
      0.18000000      0.10124462      0.10153704      0.17989457      0.17989456  7.5443452E-006
      0.19000000      0.10117990      0.10150591      0.18988872      0.18988870  8.4058940E-006
      0.20000000      0.10111167      0.10147309      0.19988286      0.19988284  9.3140137E-006
      0.21000000      0.10103994      0.10143860      0.20987700      0.20987698  1.0268704E-005
      0.22000000      0.10096469      0.10140242      0.21987115      0.21987113  1.1269966E-005
      0.23000000      0.10088594      0.10136455      0.22986530      0.22986527  1.2317800E-005
      0.24000000      0.10080368      0.10132501      0.23985944      0.23985941  1.3412204E-005
      0.25000000      0.10071791      0.10128378      0.24985359      0.24985355  1.4553180E-005
      0.26000000      0.10062863      0.10124087      0.25984773      0.25984769  1.5740728E-005
      0.27000000      0.10053585      0.10119628      0.26984188      0.26984184  1.6974848E-005
      0.28000000      0.10043956      0.10115000      0.27983603      0.27983598  1.8255540E-005
      0.29000000      0.10033975      0.10110204      0.28983018      0.28983012  1.9582803E-005
      0.30000000      0.10023645      0.10105240      0.29982432      0.29982426  2.0956640E-005
      0.31000000      0.10012963      0.10100107      0.30981847      0.30981840  2.2377048E-005
      0.32000000      0.10001930      0.10094807      0.31981262      0.31981255  2.3844029E-005
      0.33000000     0.099905468      0.10089338      0.32980677      0.32980669  2.5357584E-005
      0.34000000     0.099788126      0.10083700      0.33980092      0.33980083  2.6917711E-005
      0.35000000     0.099667276      0.10077895      0.34979507      0.34979497  2.8524411E-005
      0.36000000     0.099542918      0.10071921      0.35978922      0.35978911  3.0177685E-005
      0.37000000     0.099415052      0.10065779      0.36978337      0.36978326  3.1877532E-005
      0.38000000     0.099283678      0.10059469      0.37977753      0.37977740  3.3623954E-005
      0.39000000     0.099148796      0.10052990      0.38977168      0.38977154  3.5416949E-005
      0.40000000     0.099010407      0.10046343      0.39976583      0.39976568  3.7256519E-005
      0.41000000     0.098868509      0.10039528      0.40975998      0.40975982  3.9142663E-005
      0.42000000     0.098723104      0.10032545      0.41975414      0.41975397  4.1075382E-005
      0.43000000     0.098574191      0.10025393      0.42974829      0.42974811  4.3054675E-005
      0.44000000     0.098421769      0.10018073      0.43974245      0.43974225  4.5080545E-005
      0.45000000     0.098265841      0.10010585      0.44973660      0.44973639  4.7152989E-005
      0.46000000     0.098106404      0.10002928      0.45973076      0.45973053  4.9272010E-005
      0.47000000     0.097943460     0.099951036      0.46972492      0.46972468  5.1437606E-005
      0.48000000     0.097777008     0.099871106      0.47971908      0.47971882  5.3649778E-005
      0.49000000     0.097607048     0.099789493      0.48971323      0.48971296  5.5908528E-005
      0.50000000     0.097433581     0.099706199      0.49970739      0.49970710  5.8213854E-005
      0.51000000     0.097256606     0.099621221      0.50970155      0.50970124  6.0565757E-005
      0.52000000     0.097076123     0.099534561      0.51969571      0.51969539  6.2964237E-005
      0.53000000     0.096892133     0.099446218      0.52968988      0.52968953  6.5409296E-005
      0.54000000     0.096704635     0.099356193      0.53968404      0.53968367  6.7900932E-005
      0.55000000     0.096513630     0.099264486      0.54967820      0.54967781  7.0439147E-005
      0.56000000     0.096319117     0.099171095      0.55967236      0.55967196  7.3023940E-005
      0.57000000     0.096121097     0.099076023      0.56966653      0.56966610  7.5655312E-005
      0.58000000     0.095919570     0.098979268      0.57966069      0.57966024  7.8333263E-005
      0.59000000     0.095714535     0.098880830      0.58965486      0.58965438  8.1057795E-005
      0.60000000     0.095505993     0.098780710      0.59964903      0.59964852  8.3828906E-005
      0.61000000     0.095293944     0.098678907      0.60964319      0.60964267  8.6646597E-005
      0.62000000     0.095078387     0.098575422      0.61963736      0.61963681  8.9510869E-005
      0.63000000     0.094859323     0.098470255      0.62963153      0.62963095  9.2421722E-005
      0.64000000     0.094636752     0.098363405      0.63962570      0.63962509  9.5379157E-005
      0.65000000     0.094410674     0.098254873      0.64961987      0.64961923  9.8383173E-005
      0.66000000     0.094181088     0.098144658      0.65961404      0.65961338  1.0143377E-004
      0.67000000     0.093947996     0.098032761      0.66960822      0.66960752  1.0453095E-004
      0.68000000     0.093711397     0.097919181      0.67960239      0.67960166  1.0767472E-004
      0.69000000     0.093471290     0.097803920      0.68959657      0.68959580  1.1086506E-004
      0.70000000     0.093227677     0.097686975      0.69959074      0.69958994  1.1410199E-004
      0.71000000     0.092980557     0.097568349      0.70958492      0.70958409  1.1738551E-004
      0.72000000     0.092729929     0.097448040      0.71957910      0.71957823  1.2071561E-004
      0.73000000     0.092475795     0.097326049      0.72957328      0.72957237  1.2409229E-004
      0.74000000     0.092218155     0.097202376      0.73956746      0.73956651  1.2751556E-004
      0.75000000     0.091957007     0.097077020      0.74956164      0.74956065  1.3098542E-004
      0.76000000     0.091692353     0.096949982      0.75955582      0.75955480  1.3450186E-004
      0.77000000     0.091424192     0.096821262      0.76955000      0.76954894  1.3806489E-004
      0.78000000     0.091152525     0.096690859      0.77954418      0.77954308  1.4167450E-004
      0.79000000     0.090877351     0.096558775      0.78953837      0.78953722  1.4533070E-004
      0.80000000     0.090598670     0.096425008      0.79953256      0.79953136  1.4903349E-004
      0.81000000     0.090316483     0.096289559      0.80952674      0.80952551  1.5278287E-004
      0.82000000     0.090030790     0.096152428      0.81952093      0.81951965  1.5657884E-004
      0.83000000     0.089741590     0.096013614      0.82951512      0.82951379  1.6042140E-004
      0.84000000     0.089448884     0.095873119      0.83950931      0.83950793  1.6431054E-004
      0.85000000     0.089152672     0.095730941      0.84950350      0.84950207  1.6824628E-004
      0.86000000     0.088852953     0.095587082      0.85949770      0.85949622  1.7222861E-004
      0.87000000     0.088549728     0.095441540      0.86949189      0.86949036  1.7625753E-004
      0.88000000     0.088242997     0.095294316      0.87948609      0.87948450  1.8033304E-004
      0.89000000     0.087932760     0.095145410      0.88948028      0.88947864  1.8445514E-004
      0.90000000     0.087619018     0.094994822      0.89947448      0.89947279  1.8862384E-004
      0.91000000     0.087301769     0.094842552      0.90946868      0.90946693  1.9283913E-004
      0.92000000     0.086981014     0.094688600      0.91946288      0.91946107  1.9710101E-004
      0.93000000     0.086656753     0.094532966      0.92945708      0.92945521  2.0140949E-004
      0.94000000     0.086328987     0.094375650      0.93945129      0.93944935  2.0576457E-004
      0.95000000     0.085997714     0.094216652      0.94944549      0.94944350  2.1016623E-004
      0.96000000     0.085662937     0.094055972      0.95943970      0.95943764  2.1461450E-004
      0.97000000     0.085324653     0.093893610      0.96943390      0.96943178  2.1910936E-004
      0.98000000     0.084982864     0.093729566      0.97942811      0.97942592  2.2365082E-004
      0.99000000     0.084637569     0.093563841      0.98942232      0.98942006  2.2823887E-004
       1.0000000     0.084288769     0.093396433      0.99941653      0.99941421  2.3287353E-004
