Results for:	
File:	C:\Users\User\OneDrive - Massachusetts Institute of Technology\Documents\MIT\Grad School\Classes\2.156\Lens Project\Prime Lenses\US07196855-1.ZMX
Title:	Konica cellphone lens
Date:	11/7/2025 5:48:21 PM

0 message(s) in output.
3 series table(s) in output.

Table series: Data for wavelength : 0.486133 µm.
        Y Height       Tan Shift       Sag Shift     Real Height     Ref. Height      Distortion
  --------------  --------------  --------------  --------------  --------------  --------------
      0.00000000  5.4832291E-003  5.4832291E-003      0.00000000      0.00000000      0.00000000
     0.021200000  5.5442267E-003  5.4861898E-003     0.021054359     0.021054243  5.5037999E-004
     0.042400000  5.7249400E-003  5.4949532E-003     0.042109413     0.042108487  2.1986491E-003
     0.063600000  6.0230982E-003  5.5091652E-003     0.063165848     0.063162730  4.9362177E-003
     0.084800000  6.4349690E-003  5.5282399E-003     0.084224342     0.084216974  8.7488650E-003
      0.10600000  6.9554086E-003  5.5513676E-003      0.10528555      0.10527122     0.013616879
      0.12720000  7.5779304E-003  5.5775242E-003      0.12635011      0.12632546     0.019515248
      0.14840000  8.2947917E-003  5.6054838E-003      0.14741863      0.14737970     0.026413909
      0.16960000  9.0970961E-003  5.6338337E-003      0.16849168      0.16843395     0.034278036
      0.19080000  9.9749123E-003  5.6609916E-003      0.18956980      0.18948819     0.043068375
      0.21200000     0.010917405  5.6852246E-003      0.21065348      0.21054243     0.052741622
      0.23320000     0.011912977  5.7046701E-003      0.23174317      0.23159668     0.063250828
      0.25440000     0.012949423  5.7173581E-003      0.25283926      0.25265092     0.074545839
      0.27560000     0.014014087  5.7212348E-003      0.27394212      0.27370517     0.086573755
      0.29680000     0.015094027  5.7141865E-003      0.29505204      0.29475941     0.099279412
      0.31800000     0.016176181  5.6940648E-003      0.31616928      0.31581365      0.11260587
      0.33920000     0.017247531  5.6587115E-003      0.33729402      0.33686790      0.12649492
      0.36040000     0.018295272  5.6059839E-003      0.35842641      0.35792214      0.14088756
      0.38160000     0.019306965  5.5337789E-003      0.37956654      0.37897638      0.15572451
      0.40280000     0.020270690  5.4400575E-003      0.40071447      0.40003063      0.17094668
      0.42400000     0.021175191  5.3228678E-003      0.42187017      0.42108487      0.18649567
      0.44520000     0.022010004  5.1803668E-003      0.44303362      0.44213911      0.20231417
      0.46640000     0.022765578  5.0108413E-003      0.46420472      0.46319336      0.21834640
      0.48760000     0.023433377  4.8127270E-003      0.48538335      0.48424760      0.23453855
      0.50880000     0.024005970  4.5846259E-003      0.50656934      0.50530184      0.25083908
      0.53000000     0.024477103  4.3253216E-003      0.52776251      0.52635609      0.26719911
      0.55120000     0.024841754  4.0337938E-003      0.54896264      0.54741033      0.28357269
      0.57240000     0.025096172  3.7092291E-003      0.57016950      0.56846457      0.29991705
      0.59360000     0.025237898  3.3510315E-003      0.59138283      0.58951882      0.31619286
      0.61480000     0.025265766  2.9588296E-003      0.61260239      0.61057306      0.33236440
      0.63600000     0.025179895  2.5324825E-003      0.63382789      0.63162730      0.34839969
      0.65720000     0.024981655  2.0720833E-003      0.65505908      0.65268155      0.36427061
      0.67840000     0.024673626  1.5779611E-003      0.67629567      0.67373579      0.37995296
      0.69960000     0.024259542  1.0506805E-003      0.69753742      0.69479004      0.39542649
      0.72080000     0.023744217  4.9104048E-004      0.71878407      0.71584428      0.41067491
      0.74200000     0.023133466 -9.9929852E-005      0.74003539      0.73689852      0.42568581
      0.76320000     0.022434013 -7.2097573E-004      0.76129117      0.75795277      0.44045059
      0.78440000     0.021653391 -1.3706233E-003      0.78255121      0.77900701      0.45496435
      0.80560000     0.020799836 -2.0471872E-003      0.80381535      0.80006125      0.46922577
      0.82680000     0.019882169 -2.7487793E-003      0.82508343      0.82111550      0.48323684
      0.84800000     0.018909684 -3.4733185E-003      0.84635535      0.84216974      0.49700275
      0.86920000     0.017892024 -4.2185412E-003      0.86763101      0.86322398      0.51053159
      0.89040000     0.016839058 -4.9820126E-003      0.88891038      0.88427823      0.52383408
      0.91160000     0.015760755 -5.7611386E-003      0.91019341      0.90533247      0.53692329
      0.93280000     0.014667064 -6.5531782E-003      0.93148012      0.92638671      0.54981432
      0.95400000     0.013567782 -7.3552558E-003      0.95277054      0.94744096      0.56252391
      0.97520000     0.012472439 -8.1643745E-003      0.97406473      0.96849520      0.57507012
      0.99640000     0.011390170 -8.9774284E-003      0.99536277      0.98954944      0.58747186
       1.0176000     0.010329601 -9.7912165E-003       1.0166648       1.0106037      0.59974853
       1.0388000  9.2987332E-003    -0.010602455       1.0379708       1.0316579      0.61191953
       1.0600000  8.3048283E-003    -0.011407790       1.0592811       1.0527122      0.62400378
       1.0812000  7.3543047E-003    -0.012203809       1.0805958       1.0737664      0.63601925
       1.1024000  6.4526337E-003    -0.012987058       1.1019149       1.0948207      0.64798242
       1.1236000  5.6042436E-003    -0.013754045       1.1232386       1.1158749      0.65990774
       1.1448000  4.8124309E-003    -0.014501259       1.1445671       1.1369291      0.67180709
       1.1660000  4.0792786E-003    -0.015225177       1.1659004       1.1579834      0.68368917
       1.1872000  3.4055853E-003    -0.015922277       1.1872385       1.1790376      0.69555894
       1.2084000  2.7908047E-003    -0.016589044       1.2085815       1.2000919      0.70741700
       1.2296000  2.2329997E-003    -0.017221983       1.2299293       1.2211461      0.71925899
       1.2508000  1.7288122E-003    -0.017817628       1.2512818       1.2422004      0.73107502
       1.2720000  1.2734519E-003    -0.018372544       1.2726387       1.2632546      0.74284901
       1.2932000  8.6070802E-004    -0.018883342       1.2939997       1.2843089      0.75455821
       1.3144000  4.8298790E-004    -0.019346682       1.3153644       1.3053631      0.76617262
       1.3356000  1.3138570E-004    -0.019759277       1.3367323       1.3264173      0.77765452
       1.3568000 -2.0421304E-004    -0.020117901       1.3581026       1.3474716      0.78895812
       1.3780000 -5.3498696E-004    -0.020419393       1.3794744       1.3685258      0.80002920
       1.3992000 -8.7298969E-004    -0.020660656       1.4008469       1.3895801      0.81080502
       1.4204000 -1.2309115E-003    -0.020838669       1.4222186       1.4106343      0.82121428
       1.4416000 -1.6217886E-003    -0.020950480       1.4435884       1.4316886      0.83117734
       1.4628000 -2.0586569E-003    -0.020993213       1.4649547       1.4527428      0.84060669
       1.4840000 -2.5541501E-003    -0.020964071       1.4863156       1.4737970      0.84940773
       1.5052000 -3.1200436E-003    -0.020860331       1.5076693       1.4948513      0.85747990
       1.5264000 -3.7667480E-003    -0.020679354       1.5290138       1.5159055      0.86471823
       1.5476000 -4.5027618E-003    -0.020418583       1.5503469       1.5369598      0.87101539
       1.5688000 -5.3340935E-003    -0.020075550       1.5716663       1.5580140      0.87626431
       1.5900000 -6.2636738E-003    -0.019647878       1.5929698       1.5790683      0.88036142
       1.6112000 -7.2907763E-003    -0.019133295       1.6142550       1.6001225      0.88321058
       1.6324000 -8.4104789E-003    -0.018529642       1.6355197       1.6211767      0.88472778
       1.6536000 -9.6131954E-003    -0.017834893       1.6567622       1.6422310      0.88484662
       1.6748000    -0.010884318    -0.017047177       1.6779808       1.6632852      0.88352466
       1.6960000    -0.012204009    -0.016164806       1.6991743       1.6843395      0.88075059
       1.7172000    -0.013547189    -0.015186314       1.7203424       1.7053937      0.87655215
       1.7384000    -0.014883762    -0.014110504       1.7414854       1.7264480      0.87100490
       1.7596000    -0.016179123    -0.012936508       1.7626048       1.7475022      0.86424152
       1.7808000    -0.017394985    -0.011663850       1.7837035       1.7685565      0.85646155
       1.8020000    -0.018490569    -0.010292534       1.8047855       1.7896107      0.84794132
       1.8232000    -0.019424179 -8.8231344E-003       1.8258572       1.8106649      0.83904380
       1.8444000    -0.020155196 -7.2569046E-003       1.8469266       1.8317192      0.83022779
       1.8656000    -0.020646509 -5.5958937E-003       1.8680043       1.8527734      0.82205624
       1.8868000    -0.020867414 -3.8430773E-003       1.8891032       1.8738277      0.81520296
       1.9080000    -0.020796996 -2.0024952E-003       1.9102391       1.8948819      0.81045719
       1.9292000    -0.020428027 -7.9396273E-005       1.9314308       1.9159362      0.80872542
       1.9504000    -0.019771407  1.9196134E-003       1.9527000       1.9369904      0.81102983
       1.9716000    -0.018861191  3.9864219E-003       1.9740713       1.9580446      0.81850254
       1.9928000    -0.017760221  6.1112663E-003       1.9955724       1.9790989      0.83237538
       2.0140000    -0.016566379  8.2825935E-003       2.0172337       2.0001531      0.85396425
       2.0352000    -0.015419426     0.010486931       2.0390879       2.0212074      0.88464803
       2.0564000    -0.014508294     0.012708768       2.0611697       2.0422616      0.92584144
       2.0776000    -0.014078558     0.014930452       2.0835149       2.0633159      0.97896203
       2.0988000    -0.014439589     0.017132094       2.1061599       2.0843701       1.0453911
       2.1200000    -0.015970566     0.019291493       2.1291405       2.1054243       1.1264292

Table series: Data for wavelength : 0.587562 µm.
        Y Height       Tan Shift       Sag Shift     Real Height     Ref. Height      Distortion
  --------------  --------------  --------------  --------------  --------------  --------------
      0.00000000     0.020592462     0.020592462      0.00000000      0.00000000      0.00000000
     0.021200000     0.020650572     0.020594195     0.021111014     0.021110902  5.2855163E-004
     0.042400000     0.020823036     0.020599278     0.042222695     0.042221804  2.1113686E-003
     0.063600000     0.021107608     0.020607362     0.063335708     0.063332706  4.7399600E-003
     0.084800000     0.021500597     0.020617870     0.084450701     0.084443608  8.4002691E-003
      0.10600000     0.021996913     0.020630008      0.10556831      0.10555451     0.013072811
      0.12720000     0.022590143     0.020642768      0.12668914      0.12666541     0.018732867
      0.14840000     0.023272632     0.020654945      0.14781378      0.14777631     0.025350723
      0.16960000     0.024035589     0.020665152      0.16894277      0.16888722     0.032891963
      0.19080000     0.024869207     0.020671836      0.19007662      0.18999812     0.041317799
      0.21200000     0.025762790     0.020673296      0.21121581      0.21110902     0.050585444
      0.23320000     0.026704901     0.020667705      0.23236076      0.23221992     0.060648515
      0.25440000     0.027683511     0.020653135      0.25351185      0.25333082     0.071457470
      0.27560000     0.028686160     0.020627574      0.27466940      0.27444173     0.082960060
      0.29680000     0.029700119     0.020588956      0.29583370      0.29555263     0.095101809
      0.31800000     0.030712556     0.020535182      0.31700498      0.31666353      0.10782649
      0.33920000     0.031710705     0.020464148      0.33818340      0.33777443      0.12107664
      0.36040000     0.032682024     0.020373768      0.35936909      0.35888533      0.13479402
      0.38160000     0.033614355     0.020261996      0.38056213      0.37999624      0.14892012
      0.40280000     0.034496074     0.020126858      0.40176253      0.40110714      0.16339664
      0.42400000     0.035316235     0.019966464      0.42297029      0.42221804      0.17816594
      0.44520000     0.036064693     0.019779038      0.44418533      0.44332894      0.19317149
      0.46640000     0.036732228     0.019562937      0.46540754      0.46443984      0.20835829
      0.48760000     0.037310643     0.019316665      0.48663679      0.48555075      0.22367325
      0.50880000     0.037792851     0.019038897      0.50787290      0.50666165      0.23906556
      0.53000000     0.038172946     0.018728489      0.52911566      0.52777255      0.25448700
      0.55120000     0.038446260     0.018384495      0.55036485      0.54888345      0.26989228
      0.57240000     0.038609390     0.018006176      0.57162020      0.56999435      0.28523922
      0.59360000     0.038660228     0.017593012      0.59288146      0.59110526      0.30048905
      0.61480000     0.038597952     0.017144706      0.61414835      0.61221616      0.31560652
      0.63600000     0.038423021     0.016661192      0.63542059      0.63332706      0.33056007
      0.65720000     0.038137137     0.016142638      0.65669788      0.65443796      0.34532195
      0.67840000     0.037743205     0.015589447      0.67797995      0.67554886      0.35986824
      0.69960000     0.037245269     0.015002258      0.69926652      0.69665977      0.37417892
      0.72080000     0.036648448     0.014381943      0.72055732      0.71777067      0.38823780
      0.74200000     0.035958847     0.013729600      0.74185211      0.73888157      0.40203252
      0.76320000     0.035183468     0.013046556      0.76315065      0.75999247      0.41555446
      0.78440000     0.034330108     0.012334352      0.78445273      0.78110337      0.42879859
      0.80560000     0.033407254     0.011594740      0.80575816      0.80221428      0.44176335
      0.82680000     0.032423967     0.010829674      0.82706678      0.82332518      0.45445045
      0.84800000     0.031389767     0.010041299      0.84837845      0.84443608      0.46686466
      0.86920000     0.030314510  9.2319391E-003      0.86969307      0.86554698      0.47901359
      0.89040000     0.029208268  8.4040890E-003      0.89101055      0.88665788      0.49090737
      0.91160000     0.028081204  7.5604006E-003      0.91233085      0.90776879      0.50255841
      0.93280000     0.026943448  6.7036708E-003      0.93365395      0.92887969      0.51398104
      0.95400000     0.025804973  5.8368290E-003      0.95497986      0.94999059      0.52519116
      0.97520000     0.024675476  4.9629245E-003      0.97630860      0.97110149      0.53620591
      0.99640000     0.023564257  4.0851132E-003      0.99764022      0.99221239      0.54704320
       1.0176000     0.022480104  3.2066450E-003       1.0189748       1.0133233      0.55772135
       1.0388000     0.021431174  2.3308509E-003       1.0403125       1.0344342      0.56825863
       1.0600000     0.020424892  1.4611304E-003       1.0616533       1.0555451      0.57867277
       1.0812000     0.019467838  6.0093900E-004       1.0829973       1.0766560      0.58898050
       1.1024000     0.018565653 -2.4622386E-004       1.1043447       1.0977669      0.59919704
       1.1236000     0.017722944 -1.0768263E-003       1.1256955       1.1188778      0.60933555
       1.1448000     0.016943194 -1.8873156E-003       1.1470499       1.1399887      0.61940659
       1.1660000     0.016228689 -2.6741286E-003       1.1684078       1.1610996      0.62941760
       1.1872000     0.015580448 -3.4337023E-003       1.1897692       1.1822105      0.63937229
       1.2084000     0.014998165 -4.1624833E-003       1.2111342       1.2033214      0.64927006
       1.2296000     0.014480171 -4.8569371E-003       1.2325026       1.2244323      0.65910546
       1.2508000     0.014023400 -5.5135560E-003       1.2538743       1.2455432      0.66886759
       1.2720000     0.013623393 -6.1288675E-003       1.2752489       1.2666541      0.67853958
       1.2932000     0.013274307 -6.6994409E-003       1.2966261       1.2877650      0.68809801
       1.3144000     0.012968960 -7.2218935E-003       1.3180055       1.3088759      0.69751252
       1.3356000     0.012698909 -7.6928963E-003       1.3393864       1.3299868      0.70674530
       1.3568000     0.012454556 -8.1091790E-003       1.3607682       1.3510977      0.71575084
       1.3780000     0.012225303 -8.4675334E-003       1.3821499       1.3722086      0.72447562
       1.3992000     0.011999744 -8.7648173E-003       1.4035306       1.3933195      0.73285811
       1.4204000     0.011765913 -8.9979573E-003       1.4249089       1.4144304      0.74082881
       1.4416000     0.011511578 -9.1639504E-003       1.4462836       1.4355413      0.74831057
       1.4628000     0.011224597 -9.2598665E-003       1.4676532       1.4566522      0.75521914
       1.4840000     0.010893323 -9.2828496E-003       1.4890158       1.4777631      0.76146407
       1.5052000     0.010507065 -9.2301196E-003       1.5103697       1.4988740      0.76694996
       1.5264000     0.010056604 -9.0989747E-003       1.5317128       1.5199849      0.77157811
       1.5476000  9.5347353E-003 -8.8867942E-003       1.5530432       1.5410958      0.77524874
       1.5688000  8.9368547E-003 -8.5910431E-003       1.5743586       1.5622067      0.77786366
       1.5900000  8.2615439E-003 -8.2092784E-003       1.5956569       1.5833176      0.77932969
       1.6112000  7.5111490E-003 -7.7391588E-003       1.6169361       1.6044286      0.77956269
       1.6324000  6.6923171E-003 -7.1784576E-003       1.6381942       1.6255395      0.77849235
       1.6536000  5.8164611E-003 -6.5250805E-003       1.6594295       1.6466504      0.77606774
       1.6748000  4.9001136E-003 -5.7770895E-003       1.6806408       1.6677613      0.77226373
       1.6960000  3.9651306E-003 -4.9327337E-003       1.7018273       1.6888722      0.76708816
       1.7172000  3.0387020E-003 -3.9904878E-003       1.7229890       1.7099831      0.76058975
       1.7384000  2.1531249E-003 -2.9491014E-003       1.7441268       1.7310940      0.75286672
       1.7596000  1.3452993E-003 -1.8076571E-003       1.7652426       1.7522049      0.74407597
       1.7808000  6.5590527E-004 -5.6564182E-004       1.7863398       1.7733158      0.73444258
       1.8020000  1.2822697E-004  7.7697099E-004       1.8074232       1.7944267      0.72426939
       1.8232000 -1.9340868E-004  2.2196261E-003       1.8284995       1.8155376      0.71394641
       1.8444000 -2.6560587E-004  3.7610788E-003       1.8495777       1.8366485      0.70395951
       1.8656000 -4.8312451E-005  5.3992762E-003       1.8706689       1.8577594      0.69489812
       1.8868000  4.9230312E-004  7.1312273E-003       1.8917868       1.8788703      0.68746114
       1.9080000  1.3804818E-003  8.9528653E-003       1.9129478       1.8999812      0.68246082
       1.9292000  2.6269763E-003     0.010858903       1.9341713       1.9210921      0.68082359
       1.9504000  4.2245851E-003     0.012842688       1.9554796       1.9422030      0.68358764
       1.9716000  6.1430712E-003     0.014896050       1.9768980       1.9633139      0.69189621
       1.9928000  8.3234234E-003     0.017009162       1.9984544       1.9844248      0.70698638
       2.0140000     0.010671433     0.019170402       2.0201796       2.0055357      0.73017264
       2.0352000     0.013050604     0.021366219       2.0421064       2.0266466      0.76282492
       2.0564000     0.015274514     0.023581022       2.0642694       2.0477575      0.80634084
       2.0776000     0.017098869     0.025797067       2.0867044       2.0688684      0.86211219
       2.0988000     0.018213768     0.027994369       2.1094472       2.0899793      0.93148559
       2.1200000     0.018236985     0.030150617       2.1325329       2.1110902       1.0157179

Table series: Data for wavelength : 0.656273 µm.
        Y Height       Tan Shift       Sag Shift     Real Height     Ref. Height      Distortion
  --------------  --------------  --------------  --------------  --------------  --------------
      0.00000000     0.028649090     0.028649090      0.00000000      0.00000000      0.00000000
     0.021200000     0.028705774     0.028650231     0.021138982     0.021138872  5.1727459E-004
     0.042400000     0.028874154     0.028653538     0.042278618     0.042277745  2.0662822E-003
     0.063600000     0.029151996     0.028658666     0.063419558     0.063416617  4.6385969E-003
     0.084800000     0.029535628     0.028665044     0.084562440     0.084555489  8.2202699E-003
      0.10600000     0.030019993     0.028671883      0.10570788      0.10569436     0.012791967
      0.12720000     0.030598712     0.028678185      0.12685648      0.12683323     0.018329158
      0.14840000     0.031264179     0.028682758      0.14800881      0.14797211     0.024802363
      0.16960000     0.032007657     0.028684227      0.16916539      0.16911098     0.032177431
      0.19080000     0.032819401     0.028681053      0.19032674      0.19024985     0.040415881
      0.21200000     0.033688791     0.028671555      0.21149331      0.21138872     0.049475263
      0.23320000     0.034604470     0.028653924      0.23266551      0.23252760     0.059309564
      0.25440000     0.035554500     0.028626253      0.25384370      0.25366647     0.069869638
      0.27560000     0.036526520     0.028586552      0.27502822      0.27480534     0.081103662
      0.29680000     0.037507911     0.028532780      0.29621931      0.29594421     0.092957603
      0.31800000     0.038485960     0.028462866      0.31741721      0.31708308      0.10537570
      0.33920000     0.039448024     0.028374732      0.33862208      0.33822196      0.11830097
      0.36040000     0.040381695     0.028266321      0.35983402      0.35936083      0.13167567
      0.38160000     0.041274959     0.028135621      0.38105311      0.38049970      0.14544179
      0.40280000     0.042116340     0.027980686      0.40227935      0.40163857      0.15954153
      0.42400000     0.042895044     0.027799662      0.42351273      0.42277745      0.17391776
      0.44520000     0.043601090     0.027590808      0.44475316      0.44391632      0.18851446
      0.46640000     0.044225422     0.027352514      0.46600054      0.46505519      0.20327712
      0.48760000     0.044760010     0.027083322      0.48725471      0.48619406      0.21815314
      0.50880000     0.045197941     0.026781945      0.50851549      0.50733293      0.23309217
      0.53000000     0.045533485     0.026447275      0.52978266      0.52847181      0.24804647
      0.55120000     0.045762144     0.026078406      0.55105600      0.54961068      0.26297116
      0.57240000     0.045880696     0.025674636      0.57233523      0.57074955      0.27782449
      0.59360000     0.045887202     0.025235484      0.59362010      0.59188842      0.29256806
      0.61480000     0.045781017     0.024760692      0.61491031      0.61302730      0.30716698
      0.63600000     0.045562766     0.024250234      0.63620558      0.63416617      0.32159002
      0.65720000     0.045234321     0.023704316      0.65750562      0.65530504      0.33580970
      0.67840000     0.044798746     0.023123380      0.67881013      0.67644391      0.34980236
      0.69960000     0.044260246     0.022508103      0.70011883      0.69758279      0.36354818
      0.72080000     0.043624091     0.021859393      0.72143146      0.71872166      0.37703115
      0.74200000     0.042896532     0.021178389      0.74274775      0.73986053      0.39023903
      0.76320000     0.042084712     0.020466451      0.76406747      0.76099940      0.40316329
      0.78440000     0.041196564     0.019725159      0.78539040      0.78213827      0.41579894
      0.80560000     0.040240702     0.018956299      0.80671633      0.80327715      0.42814440
      0.82680000     0.039226310     0.018161859      0.82804511      0.82441602      0.44020134
      0.84800000     0.038163022     0.017344018      0.84937658      0.84555489      0.45197444
      0.86920000     0.037060805     0.016505133      0.87071064      0.86669376      0.46347115
      0.89040000     0.035929835     0.015647731      0.89204719      0.88783264      0.47470142
      0.91160000     0.034780373     0.014774495      0.91338618      0.90897151      0.48567743
      0.93280000     0.033622641     0.013888252      0.93472757      0.93011038      0.49641323
      0.95400000     0.032466703     0.012991961      0.95607137      0.95124925      0.50692441
      0.97520000     0.031322340     0.012088700      0.97741759      0.97238812      0.51722774
      0.99640000     0.030198934     0.011181652      0.99876627      0.99352700      0.52734074
       1.0176000     0.029105351     0.010274094       1.0201175       1.0146659      0.53728130
       1.0388000     0.028049825  9.3693837E-003       1.0414713       1.0358047      0.54706722
       1.0600000     0.027039857  8.4709455E-003       1.0628278       1.0569436      0.55671574
       1.0812000     0.026082104  7.5822598E-003       1.0841871       1.0780825      0.56624308
       1.1024000     0.025182281  6.7068504E-003       1.1055492       1.0992214      0.57566391
       1.1236000     0.024345074  5.8482727E-003       1.1269142       1.1203602      0.58499085
       1.1448000     0.023574047  5.0101028E-003       1.1482823       1.1414991      0.59423391
       1.1660000     0.022871572  4.1959266E-003       1.1696533       1.1626380      0.60339996
       1.1872000     0.022238757  3.4093298E-003       1.1910274       1.1837768      0.61249218
       1.2084000     0.021675395  2.6538881E-003       1.2124044       1.2049157      0.62150946
       1.2296000     0.021179921  1.9331584E-003       1.2337842       1.2260546      0.63044584
       1.2508000     0.020749389  1.2506706E-003       1.2551666       1.2471935      0.63929001
       1.2720000     0.020379466  6.0991963E-004       1.2765514       1.2683323      0.64802470
       1.2932000     0.020064455  1.4359032E-005       1.2979382       1.2894712      0.65662625
       1.3144000     0.019797335 -5.3260561E-004       1.3193265       1.3106101      0.66506407
       1.3356000     0.019569845 -1.0276218E-003       1.3407156       1.3317490      0.67330032
       1.3568000     0.019372594 -1.4673951E-003       1.3621049       1.3528878      0.68128959
       1.3780000     0.019195213 -1.8486926E-003       1.3834934       1.3740267      0.68897867
       1.3992000     0.019026559 -2.1683465E-003       1.4048802       1.3951656      0.69630653
       1.4204000     0.018854964 -2.4232569E-003       1.4262640       1.4163044      0.70320445
       1.4416000     0.018668530 -2.6103932E-003       1.4476434       1.4374433      0.70959634
       1.4628000     0.018455493 -2.7267968E-003       1.4690169       1.4585822      0.71539940
       1.4840000     0.018204630 -2.7695820E-003       1.4903828       1.4797211      0.72052498
       1.5052000     0.017905729 -2.7359376E-003       1.5117394       1.5008599      0.72487997
       1.5264000     0.017550098 -2.6231299E-003       1.5330846       1.5219988      0.72836844
       1.5476000     0.017131127 -2.4285049E-003       1.5544164       1.5431377      0.73089394
       1.5688000     0.016644865 -2.1494932E-003       1.5757327       1.5642765      0.73236226
       1.5900000     0.016090615 -1.7836168E-003       1.5970315       1.5854154      0.73268485
       1.6112000     0.015471512 -1.3284985E-003       1.6183108       1.6065543      0.73178296
       1.6324000     0.014795065 -7.8187521E-004       1.6395687       1.6276932      0.72959242
       1.6536000     0.014073619 -1.4161633E-004       1.6608037       1.6488320      0.72606932
       1.6748000     0.013324716  5.9425218E-004       1.6820147       1.6699709      0.72119637
       1.6960000     0.012571294  1.4275166E-003       1.7032010       1.6911098      0.71499012
       1.7172000     0.011841701  2.3597360E-003       1.7243630       1.7122487      0.70750887
       1.7384000     0.011169469  3.3921930E-003       1.7455015       1.7333875      0.69886125
       1.7596000     0.010592814  4.5258341E-003       1.7666189       1.7545264      0.68921534
       1.7808000     0.010153811  5.7611989E-003       1.7877186       1.7756653      0.67880803
       1.8020000  9.8972279E-003  7.0983364E-003       1.8088060       1.7968041      0.66795455
       1.8232000  9.8689653E-003  8.5367093E-003       1.8298879       1.8179430      0.65705758
       1.8444000     0.010114089     0.010075086       1.8509737       1.8390819      0.64661582
       1.8656000     0.010674425     0.011711423       1.8720747       1.8602208      0.63723129
       1.8868000     0.011585680     0.013442730       1.8932050       1.8813596      0.62961506
       1.9080000     0.012874075     0.015264938       1.9143813       1.9024985      0.62459059
       1.9292000     0.014552436     0.017172751       1.9356235       1.9236374      0.62309433
       1.9504000     0.016615701     0.019159502       1.9569539       1.9447762      0.62617271
       1.9716000     0.019035801     0.021217002       1.9783982       1.9659151      0.63497507
       1.9928000     0.021755843     0.023335398       1.9999846       1.9870540      0.65074199
       2.0140000     0.024683589     0.025503036       2.0217439       2.0081929      0.67478837
       2.0352000     0.027684207     0.027706330       2.0437092       2.0293317      0.70848107
       2.0564000     0.030572424     0.029929643       2.0659150       2.0504706      0.75321086
       2.0776000     0.033104314     0.032155182       2.0883969       2.0716095      0.81035851
       2.0988000     0.034969218     0.034362897       2.1111908       2.0927484      0.88125534
       2.1200000     0.035782629     0.036530405       2.1343314       2.1138872      0.96713849
