Results for:	
File:	C:\Users\User\OneDrive - Massachusetts Institute of Technology\Documents\MIT\Grad School\Classes\2.156\Lens Project\Prime Lenses\US08102607-1.ZMX
Title:	
Date:	11/7/2025 5:49:23 PM

0 message(s) in output.
3 series table(s) in output.

Table series: Data for wavelength : 0.486133 µm.
   Y Angle (deg)       Tan Shift       Sag Shift     Real Height     Ref. Height      Distortion
  --------------  --------------  --------------  --------------  --------------  --------------
      0.00000000    -0.027211655    -0.027211655      0.00000000      0.00000000      0.00000000
      0.30291172    -0.027080323    -0.027185702     0.020179091     0.020179022  3.4138078E-004
      0.60582344    -0.026740964    -0.027107940     0.040359978     0.040359172  1.9966359E-003
      0.90873516    -0.026195898    -0.026978653     0.060544457     0.060541579  4.7528811E-003
       1.2116469    -0.025448901    -0.026798316     0.080734319     0.080727371  8.6062930E-003
       1.5145586    -0.024505194    -0.026567592      0.10093135      0.10091768     0.013551412
       1.8174703    -0.023371434    -0.026287332      0.12113735      0.12111363     0.019581040
       2.1203820    -0.022055691    -0.025958574      0.14135407      0.14131636     0.026686102
       2.4232938    -0.020567430    -0.025582538      0.16158330      0.16152700     0.034855498
       2.7262055    -0.018917476    -0.025160629      0.18182679      0.18174669     0.044075910
       3.0291172    -0.017117988    -0.024694429      0.20208629      0.20197655     0.054331626
       3.3320289    -0.015182410    -0.024185702      0.22236353      0.22221775     0.065604248
       3.6349406    -0.013125434    -0.023636380      0.24266022      0.24247140     0.077872564
       3.9378524    -0.010962940    -0.023048568      0.26297805      0.26273867     0.091112237
       4.2407641 -8.7119310E-003    -0.022424535      0.28331870      0.28302069      0.10529558
       4.5436758 -6.3904622E-003    -0.021766713      0.30368379      0.30331862      0.12039130
       4.8465875 -4.0175529E-003    -0.021077688      0.32407493      0.32363361      0.13636430
       5.1494992 -1.6130899E-003    -0.020360192      0.34449370      0.34396683      0.15317541
       5.4524110  8.0228510E-004    -0.019617104      0.36494162      0.36431943      0.17078124
       5.7553227  3.2073025E-003    -0.018851434      0.38542016      0.38469258      0.18913400
       6.0582344  5.5802084E-003    -0.018066319      0.40593077      0.40508745      0.20818138
       6.3611461  7.8989252E-003    -0.017265007      0.42647481      0.42550523      0.22786647
       6.6640578     0.010141231    -0.016450854      0.44705360      0.44594709      0.24812780
       6.9669696     0.012284955    -0.015627312      0.46766840      0.46641421      0.26889934
       7.2698813     0.014308194    -0.014797896      0.48832037      0.48690780      0.29011067
       7.5727930     0.016189541    -0.013966196      0.50901064      0.50742905      0.31168721
       7.8757047     0.017908334    -0.013135846      0.52974025      0.52797917      0.33355055
       8.1786164     0.019444913    -0.012310506      0.55051015      0.54855937      0.35561883
       8.4815282     0.020780889    -0.011493848      0.57132124      0.56917087      0.37780732
       8.7844399     0.021899414    -0.010689529      0.59217432      0.58981489      0.40002903
       9.0873516     0.022785450 -9.9011717E-003      0.61307014      0.61049267      0.42219544
       9.3902633     0.023426039 -9.1323443E-003      0.63400938      0.63120545      0.44421740
       9.6931750     0.023810544 -8.3865317E-003      0.65499263      0.65195449      0.46600601
       9.9960868     0.023930880 -7.6671130E-003      0.67602046      0.67274103      0.48747370
       10.298998     0.023781711 -6.9773364E-003      0.69709338      0.69356635      0.50853534
       10.601910     0.023360610 -6.3202934E-003      0.71821184      0.71443171      0.52910938
       10.904822     0.022668171 -5.6988945E-003      0.73937630      0.73533842      0.54911902
       11.207734     0.021708080 -5.1158447E-003      0.76058721      0.75628776      0.56849344
       11.510645     0.020487116 -4.5736208E-003      0.78184499      0.77728104      0.58716897
       11.813557     0.019015106 -4.0744503E-003      0.80315012      0.79831957      0.60509011
       12.116469     0.017304808 -3.6202920E-003      0.82450310      0.81940468      0.62221056
       12.419381     0.015371744 -3.2128199E-003      0.84590449      0.84053770      0.63849407
       12.722292     0.013233974 -2.8534085E-003      0.86735491      0.86172000      0.65391504
       13.025204     0.010911785 -2.5431234E-003      0.88885509      0.88295292      0.66845893
       13.328116  8.4274083E-003 -2.2827134E-003      0.91040584      0.90423784      0.68212241
       13.631027  5.8046217E-003 -2.0726073E-003      0.93200809      0.92557614      0.69491319
       13.933939  3.0684045E-003 -1.9129141E-003      0.95366288      0.94696923      0.70684947
       14.236851  2.4448424E-004 -1.8034270E-003      0.97537137      0.96841852      0.71795912
       14.539763 -2.6410288E-003 -1.7436306E-003      0.99713484      0.98992542      0.72827841
       14.842674 -5.5620391E-003 -1.7327118E-003       1.0189547       1.0114914      0.73785042
       15.145586 -8.4928325E-003 -1.7695730E-003       1.0408324       1.0331179      0.74672313
       15.448498    -0.011408409 -1.8528491E-003       1.0627696       1.0548063      0.75494714
       15.751409    -0.014284773 -1.9809255E-003       1.0847678       1.0765583      0.76257319
       16.054321    -0.017099177 -2.1519585E-003       1.1068288       1.0983752      0.76964945
       16.357233    -0.019830303 -2.3638970E-003       1.1289542       1.1202586      0.77621877
       16.660145    -0.022458398 -2.6145050E-003       1.1511457       1.1422100      0.78231584
       16.963056    -0.024965346 -2.9013852E-003       1.1734047       1.1642310      0.78796459
       17.265968    -0.027334677 -3.2220022E-003       1.1957327       1.1863231      0.79317572
       17.568880    -0.029551534 -3.5737074E-003       1.2181310       1.2084879      0.79794476
       17.871791    -0.031602584 -3.9537630E-003       1.2406006       1.2307271      0.80225052
       18.174703    -0.033475886 -4.3593670E-003       1.2631424       1.2530422      0.80605439
       18.477615    -0.035160723 -4.7876796E-003       1.2857571       1.2754350      0.80930033
       18.780527    -0.036647412 -5.2358497E-003       1.3084449       1.2979069      0.81191593
       19.083438    -0.037927087 -5.7010440E-003       1.3312060       1.3204599      0.81381445
       19.386350    -0.038991478 -6.1804772E-003       1.3540403       1.3430954      0.81489808
       19.689262    -0.039832653 -6.6714457E-003       1.3769477       1.3658154      0.81506226
       19.992174    -0.040443005 -7.1713634E-003       1.3999277       1.3886215      0.81420132
       20.295085    -0.040814707 -7.6778003E-003       1.4229800       1.4115155      0.81221501
       20.597997    -0.040939937 -8.1885245E-003       1.4461045       1.4344992      0.80901607
       20.900909    -0.040810631 -8.7015459E-003       1.4693011       1.4575744      0.80453848
       21.203820    -0.040418540 -9.2151619E-003       1.4925703       1.4807429      0.79874597
       21.506732    -0.039755264 -9.7280019E-003       1.5159131       1.5040067      0.79164063
       21.809644    -0.038812546    -0.010239071       1.5393311       1.5273677      0.78327085
       22.112556    -0.037582548    -0.010747790       1.5628270       1.5508277      0.77373828
       22.415467    -0.036058298    -0.011254023       1.5864044       1.5743887      0.76320304
       22.718379    -0.034234357    -0.011758102       1.6100682       1.5980526      0.75188670
       23.021291    -0.032107395    -0.012260829       1.6338243       1.6218216      0.74007232
       23.324202    -0.029677042    -0.012763466       1.6576800       1.6456976      0.72810121
       23.627114    -0.026946736    -0.013267697       1.6816438       1.6696827      0.71636585
       23.930026    -0.023924459    -0.013775565       1.7057253       1.6937791      0.70529891
       24.232938    -0.020623381    -0.014289386       1.7299349       1.7179887      0.69535832
       24.535849    -0.017062392    -0.014811626       1.7542837       1.7423138      0.68700870
       24.838761    -0.013266143    -0.015344746       1.7787830       1.7667567      0.68069969
       25.141673 -9.2647098E-003    -0.015891027       1.8034438       1.7913194      0.67684205
       25.444584 -5.0927436E-003    -0.016452360       1.8282766       1.8160044      0.67578263
       25.747496 -7.8811406E-004    -0.017030025       1.8532905       1.8408138      0.67777958
       26.050408  3.6097908E-003    -0.017624469       1.8784928       1.8657501      0.68297917
       26.353320  8.0617686E-003    -0.018235098       1.9038887       1.8908157      0.69139587
       26.656231     0.012529933    -0.018860129       1.9294804       1.9160128      0.70289713
       26.959143     0.016977462    -0.019496535       1.9552673       1.9413441      0.71719416
       27.262055     0.021366126    -0.020140155       1.9812452       1.9668119      0.73384017
       27.564967     0.025650521    -0.020786059       2.0074067       1.9924189      0.75223736
       27.867878     0.029770299    -0.021429265       2.0337410       2.0181677      0.77165489
       28.170790     0.033640487    -0.022065932       2.0602347       2.0440608      0.79126213
       28.473702     0.037146753    -0.022695142       2.0868726       2.0701009      0.81018503
       28.776613     0.040153592    -0.023321316       2.1136397       2.0962908      0.82760103
       29.079525     0.042538915    -0.023957180       2.1405249       2.1226332      0.84289753
       29.382437     0.044269620    -0.024626953       2.1675261       2.1491310      0.85593144
       29.685349     0.045527018    -0.025369035       2.1946606       2.1757871      0.86743596
       29.988260     0.046876874    -0.026236992       2.2219787       2.2026042      0.87961546
       30.291172     0.049453518    -0.027297276       2.2495835       2.2295856      0.89693348

Table series: Data for wavelength : 0.587562 µm.
   Y Angle (deg)       Tan Shift       Sag Shift     Real Height     Ref. Height      Distortion
  --------------  --------------  --------------  --------------  --------------  --------------
      0.00000000    -0.017741645    -0.017741645      0.00000000      0.00000000      0.00000000
      0.30291172    -0.017606627    -0.017714824     0.020171594     0.020171483  5.4649913E-004
      0.60582344    -0.017256768    -0.017634454     0.040344976     0.040344095  2.1853345E-003
      0.90873516    -0.016694362    -0.017500817     0.060521935     0.060518961  4.9143214E-003
       1.2116469    -0.015923139    -0.017314384     0.080704257     0.080697212  8.7297991E-003
       1.5145586    -0.014948262    -0.017075813      0.10089372      0.10087998     0.013626538
       1.8174703    -0.013776314    -0.016785945      0.12109211      0.12106838     0.019597638
       2.1203820    -0.012415278    -0.016445809      0.14130119      0.14126356     0.026634396
       2.4232938    -0.010874520    -0.016056618      0.16152273      0.16146665     0.034726152
       2.7262055 -9.1647598E-003    -0.015619763      0.18175847      0.18167879     0.043860113
       3.0291172 -7.2980474E-003    -0.015136815      0.20201017      0.20190110     0.054021156
       3.3320289 -5.2877135E-003    -0.014609527      0.22227954      0.22213473     0.065191590
       3.6349406 -3.1483411E-003    -0.014039818      0.24256830      0.24238082     0.077350967
       3.9378524 -8.9570624E-004    -0.013429783      0.26287814      0.26264051     0.090475819
       4.2407641  1.4532800E-003    -0.012781680      0.28321071      0.28291495      0.10453942
       4.5436758  3.8806404E-003    -0.012097931      0.30356767      0.30320530      0.11951156
       4.8465875  6.3674127E-003    -0.011381115      0.32395061      0.32351271      0.13535829
       5.1494992  8.8937419E-003    -0.010633960      0.34436110      0.34383832      0.15204174
       5.4524110     0.011438987 -9.8593412E-003      0.36480068      0.36418332      0.16951991
       5.7553227     0.013981845 -9.0602701E-003      0.38527084      0.38454886      0.18774653
       6.0582344     0.016500486 -8.2398880E-003      0.40577300      0.40493612      0.20667090
       6.3611461     0.018972711 -7.4014525E-003      0.42630856      0.42534626      0.22623790
       6.6640578     0.021376127 -6.5483330E-003      0.44687883      0.44578048      0.24638789
       6.9669696     0.023688337 -5.6839997E-003      0.46748509      0.46623996      0.26705684
       7.2698813     0.025887154 -4.8119921E-003      0.48812853      0.48672590      0.28817646
       7.5727930     0.027950826 -3.9359324E-003      0.50881027      0.50723948      0.30967437
       7.8757047     0.029858285 -3.0594912E-003      0.52953139      0.52778192      0.33147449
       8.1786164     0.031589398 -2.1863743E-003      0.55029285      0.54835443      0.35349738
       8.4815282     0.033125244 -1.3203035E-003      0.57109558      0.56895823      0.37566082
       8.7844399     0.034448377 -4.6499648E-004      0.59194042      0.58959454      0.39788039
       9.0873516     0.035543110  3.7585544E-004      0.61282814      0.61026460      0.42007024
       9.3902633     0.036395774  1.1986100E-003      0.63375944      0.63096964      0.44214388
       9.6931750     0.036994978  1.9996981E-003      0.65473496      0.65171092      0.46401512
       9.9960868     0.037331840  2.7756485E-003      0.67575530      0.67248970      0.48559910
       10.298998     0.037400196  3.5231129E-003      0.69682101      0.69330724      0.50681334
       10.601910     0.037196762  4.2388915E-003      0.71793259      0.71416481      0.52757889
       10.904822     0.036721269  4.9199576E-003      0.73909054      0.73506370      0.54782148
       11.207734     0.035976529  5.5634822E-003      0.76029534      0.75600522      0.56747269
       11.510645     0.034968455  6.1668570E-003      0.78154748      0.77699065      0.58647107
       11.813557     0.033706026  6.7277163E-003      0.80284746      0.79802132      0.60476316
       12.116469     0.032201176  7.2439560E-003      0.82419584      0.81909855      0.62230450
       12.419381     0.030468635  7.7137511E-003      0.84559322      0.84022368      0.63906038
       12.722292     0.028525709  8.1355697E-003      0.86704028      0.86139806      0.65500646
       13.025204     0.026391979  8.5081843E-003      0.88853777      0.88262305      0.67012913
       13.328116     0.024089017  8.8306789E-003      0.91008654      0.90390002      0.68442566
       13.631027     0.021639986  9.1024535E-003      0.93168757      0.92523035      0.69790395
       13.933939     0.019069300  9.3232238E-003      0.95334193      0.94661545      0.71058204
       14.236851     0.016402165  9.4930183E-003      0.97505081      0.96805672      0.72248721
       14.539763     0.013664210  9.6121712E-003      0.99681552      0.98955560      0.73365475
       14.842674     0.010881081  9.6813117E-003       1.0186375       1.0111135      0.74412639
       15.145586  8.0780711E-003  9.7013513E-003       1.0405182       1.0327319      0.75394834
       15.448498  5.2797764E-003  9.6734673E-003       1.0624592       1.0544123      0.76316912
       15.751409  2.5098016E-003  9.5990849E-003       1.0844623       1.0761561      0.77183705
       16.054321 -2.0948956E-004  9.4798568E-003       1.1065289       1.0979648      0.77999762
       16.357233 -2.8571666E-003  9.3176424E-003       1.1286609       1.1198401      0.78769076
       16.660145 -5.4138653E-003  9.1144845E-003       1.1508599       1.1417833      0.79494812
       16.963056 -7.8618603E-003  8.8725872E-003       1.1731272       1.1637960      0.80179044
       17.265968    -0.010185079  8.5942918E-003       1.1954645       1.1858799      0.80822526
       17.568880    -0.012369056  8.2820529E-003       1.2178728       1.2080365      0.81424494
       17.871791    -0.014400841  7.9384150E-003       1.2403534       1.2302673      0.81982527
       18.174703    -0.016268852  7.5659872E-003       1.2629069       1.2525741      0.82492475
       18.477615    -0.017962693  7.1674183E-003       1.2855340       1.2749585      0.82948469
       18.780527    -0.019472947  6.7453707E-003       1.3082352       1.2974221      0.83343028
       19.083438    -0.020790938  6.3024927E-003       1.3310104       1.3199666      0.83667264
       19.386350    -0.021908488  5.8413884E-003       1.3538595       1.3425937      0.83911209
       19.689262    -0.022817643  5.3645867E-003       1.3767825       1.3653051      0.84064247
       19.992174    -0.023510591  4.8745064E-003       1.3997788       1.3881027      0.84115662
       20.295085    -0.023979302  4.3734185E-003       1.4228483       1.4109882      0.84055296
       20.597997    -0.024215357  3.8634074E-003       1.4459905       1.4339633      0.83874285
       20.900909    -0.024210069  3.3463277E-003       1.4692056       1.4570298      0.83565870
       21.203820    -0.023954356  2.8237611E-003       1.4924940       1.4801897      0.83126235
       21.506732    -0.023438821  2.2969729E-003       1.5158566       1.5034449      0.82555345
       21.809644    -0.022654064  1.7668702E-003       1.5392951       1.5267971      0.81857723
       22.112556    -0.021590984  1.2339641E-003       1.5628120       1.5502483      0.81043125
       22.415467    -0.020241260  6.9833931E-004       1.5864109       1.5738005      0.80127046
       22.718379    -0.018598058  1.5963416E-004       1.6100965       1.5974556      0.79131003
       23.021291    -0.016656658 -3.8296556E-004       1.6338746       1.6212157      0.78082533
       23.324202    -0.014415363 -9.3071470E-004       1.6577524       1.6450828      0.77014868
       23.627114    -0.011876326 -1.4852753E-003       1.6817382       1.6690590      0.75966240
       23.930026 -9.0464666E-003 -2.0486579E-003       1.7058413       1.6931463      0.74978800
       24.232938 -5.9380194E-003 -2.6231353E-003       1.7300719       1.7173469      0.74097161
       24.535849 -2.5691559E-003 -3.2111260E-003       1.7544409       1.7416629      0.73366581
       24.838761  1.0359775E-003 -3.8150478E-003       1.7789593       1.7660966      0.72830856
       25.141673  4.8475999E-003 -4.4371422E-003       1.8036378       1.7906502      0.72529992
       25.444584  8.8311951E-003 -5.0792739E-003       1.8284867       1.8153259      0.72497782
       25.747496     0.012948955 -5.7427130E-003       1.8535148       1.8401261      0.72759395
       26.050408     0.017161644 -6.4279127E-003       1.8787294       1.8650531      0.73329157
       26.353320     0.021430575 -7.1343028E-003       1.9041355       1.8901093      0.74208637
       26.656231     0.025719169 -7.8601292E-003       1.9297355       1.9152970      0.75385218
       26.959143     0.029993351 -8.6023821E-003       1.9555288       1.9406188      0.76831281
       27.262055     0.034219930 -9.3568747E-003       1.9815117       1.9660772      0.78504134
       27.564967     0.038362289    -0.010118550       2.0076771       1.9916746      0.80346838
       27.867878     0.042373464    -0.010882119       2.0340150       2.0174137      0.82290135
       28.170790     0.046188269    -0.011643131       2.0605131       2.0432971      0.84255866
       28.473702     0.049718906    -0.012399600       2.0871574       2.0693275      0.86162599
       28.776613     0.052862231    -0.013154215       2.1139345       2.0955077      0.87934797
       29.079525     0.055530659    -0.013917093       2.1408345       2.1218402      0.89517760
       29.382437     0.057720582    -0.014708787       2.1678568       2.1483281      0.90901629
       29.685349     0.059627742    -0.015562907       2.1950185       2.1749742      0.92158575
       29.988260     0.061807288    -0.016527321       2.2223674       2.2017814      0.93496936
       30.291172     0.065353633    -0.017662510       2.2500000       2.2287526      0.95333100

Table series: Data for wavelength : 0.656273 µm.
   Y Angle (deg)       Tan Shift       Sag Shift     Real Height     Ref. Height      Distortion
  --------------  --------------  --------------  --------------  --------------  --------------
      0.00000000    -0.012759981    -0.012759981      0.00000000      0.00000000      0.00000000
      0.30291172    -0.012623440    -0.012732811     0.020168520     0.020168402  5.8501645E-004
      0.60582344    -0.012269289    -0.012651396     0.040338826     0.040337932  2.2147225E-003
      0.90873516    -0.011699810    -0.012516016     0.060512700     0.060509717  4.9285410E-003
       1.2116469    -0.010918718    -0.012327140     0.080691924     0.080684886  8.7228826E-003
       1.5145586 -9.9311524E-003    -0.012085422      0.10087828      0.10086457     0.013592618
       1.8174703 -8.7436680E-003    -0.011791704      0.12107353      0.12104989     0.019530978
       2.1203820 -7.3642155E-003    -0.011447009      0.14127946      0.14124199     0.026529421
       2.4232938 -5.8021236E-003    -0.011052545      0.16149781      0.16144199     0.034577483
       2.7262055 -4.0680741E-003    -0.010609701      0.18173035      0.18165104     0.043662596
       3.0291172 -2.1740750E-003    -0.010120042      0.20197880      0.20187026     0.053769898
       3.3320289 -1.3341589E-004 -9.5853168E-003      0.22224490      0.22210080     0.064882006
       3.6349406  2.0393603E-003 -9.0074400E-003      0.24253035      0.24234379     0.076978810
       3.9378524  4.3285151E-003 -8.3885020E-003      0.26283683      0.26260039     0.090037221
       4.2407641  6.7171701E-003 -7.7307567E-003      0.28316601      0.28287174      0.10403094
       4.5436758  9.1873747E-003 -7.0366229E-003      0.30351954      0.30315899      0.11893021
       4.8465875     0.011720184 -6.3086771E-003      0.32389900      0.32346329      0.13470162
       5.1494992     0.014295752 -5.5496454E-003      0.34430598      0.34378581      0.15130785
       5.4524110     0.016893434 -4.7624023E-003      0.36474201      0.36412769      0.16870751
       5.7553227     0.019491905 -3.9499598E-003      0.38520856      0.38449012      0.18685500
       6.0582344     0.022069302 -3.1154618E-003      0.40570709      0.40487427      0.20570034
       6.3611461     0.024603373 -2.2621695E-003      0.42623898      0.42528130      0.22518917
       6.6640578     0.027071650 -1.3934584E-003      0.44680556      0.44571239      0.24526269
       6.9669696     0.029451641 -5.1280666E-004      0.46740810      0.46616875      0.26585775
       7.2698813     0.031721043  3.7623603E-004      0.48804779      0.48665155      0.28690695
       7.5727930     0.033857960  1.2700346E-003      0.50872578      0.50716200      0.30833893
       7.8757047     0.035841157  2.1649030E-003      0.52944314      0.52770131      0.33007861
       8.1786164     0.037650313  3.0571173E-003      0.55020085      0.54827068      0.35204764
       8.4815282     0.039266287  3.9429345E-003      0.57099984      0.56887133      0.37416489
       8.7844399     0.040671398  4.8186129E-003      0.59184097      0.58950448      0.39634710
       9.0873516     0.041849695  5.6804338E-003      0.61272501      0.61017138      0.41850957
       9.3902633     0.042787226  6.5247248E-003      0.63365268      0.63087327      0.44056701
       9.6931750     0.043472302  7.3478831E-003      0.65462465      0.65161138      0.46243442
       9.9960868     0.043895725  8.1464009E-003      0.67564152      0.67238698      0.48402814
       10.298998     0.044051003  8.9168900E-003      0.69670385      0.69320134      0.50526689
       10.601910     0.043934519  9.6561076E-003      0.71781218      0.71405573      0.52607286
       10.904822     0.043545662     0.010360981      0.73896700      0.73495143      0.54637292
       11.207734     0.042886905     0.011028633      0.76016883      0.75588974      0.56609973
       11.510645     0.041963828     0.011656404      0.78141817      0.77687197      0.58519282
       11.813557     0.040785079     0.012241873      0.80271555      0.79789943      0.60359968
       12.116469     0.039362277     0.012782880      0.82406153      0.81897344      0.62127667
       12.419381     0.037709848     0.013277541      0.84545675      0.84009535      0.63818980
       12.722292     0.035844813     0.013724264      0.86690189      0.86126649      0.65431531
       13.025204     0.033786485     0.014121758      0.88839773      0.88248824      0.66964008
       13.328116     0.031556187     0.014469043      0.90994515      0.90376196      0.68416166
       13.631027     0.029176853     0.014765453      0.93154512      0.92508903      0.69788810
       13.933939     0.026672685     0.015010637      0.95319873      0.94647086      0.71083744
       14.236851     0.024068695     0.015204555      0.97490720      0.96790886      0.72303676
       14.539763     0.021390331     0.015347472      0.99667183      0.98940445      0.73452102
       14.842674     0.018663071     0.015439947       1.0184941       1.0109591      0.74533142
       15.145586     0.015912047     0.015482820       1.0403754       1.0325742      0.75551351
       15.448498     0.013161702     0.015477198       1.0623175       1.0542512      0.76511498
       15.751409     0.010435488     0.015424432       1.0843219       1.0759917      0.77418321
       16.054321  7.7556159E-003     0.015326104       1.1063903       1.0977971      0.78276262
       16.357233  5.1428596E-003     0.015183999       1.1285244       1.1196690      0.79089201
       16.660145  2.6164238E-003     0.015000086       1.1507258       1.1416089      0.79860180
       16.963056  1.9386968E-004     0.014776495       1.1729960       1.1636183      0.80591151
       17.265968 -2.1088971E-003     0.014515493       1.1953364       1.1856988      0.81282740
       17.568880 -4.2775802E-003     0.014219461       1.2177484       1.2078519      0.81934061
       17.871791 -6.2993920E-003     0.013890867       1.2402328       1.2300794      0.82542575
       18.174703 -8.1629055E-003     0.013532248       1.2627906       1.2523828      0.83104020
       18.477615 -9.8578655E-003     0.013146178       1.2854223       1.2747637      0.83612427
       18.780527    -0.011374967     0.012735248       1.3081284       1.2972239      0.84060222
       19.083438    -0.012705614     0.012302033       1.3309088       1.3197649      0.84438439
       19.386350    -0.013841665     0.011849070       1.3537636       1.3423886      0.84737041
       19.689262    -0.014775146     0.011378820       1.3766925       1.3650966      0.84945351
       19.992174    -0.015498163     0.010893638       1.3996951       1.3878907      0.85052604
       20.295085    -0.016002531     0.010395737       1.4227711       1.4107726      0.85048589
       20.597997    -0.016279598  9.8871446E-003       1.4459202       1.4337442      0.84924392
       20.900909    -0.016320365  9.3696675E-003       1.4691425       1.4568073      0.84673193
       21.203820    -0.016115354  8.8448442E-003       1.4924384       1.4799637      0.84291101
       21.506732    -0.015654689  8.3139044E-003       1.5158089       1.5032152      0.83777980
       21.809644    -0.014928430  7.7777270E-003       1.5392554       1.5265639      0.83138221
       22.112556    -0.013926869  7.2368033E-003       1.5627807       1.5500115      0.82381408
       22.415467    -0.012641040  6.6912067E-003       1.5863882       1.5735601      0.81522820
       22.718379    -0.011063437  6.1405726E-003       1.6100826       1.5972116      0.80583701
       23.021291 -9.1886696E-003  5.5840921E-003       1.6338696       1.6209681      0.79591266
       23.324202 -7.0143888E-003  5.0205229E-003       1.6577564       1.6448315      0.78578371
       23.627114 -4.5421441E-003  4.4482225E-003       1.6817511       1.6688040      0.77582819
       23.930026 -1.7783216E-003  3.8652043E-003       1.7058630       1.6928877      0.76646297
       24.232938  1.2652856E-003  3.2692232E-003       1.7301023       1.7170846      0.75812927
       24.535849  4.5708380E-003  2.6578894E-003       1.7544796       1.7413969      0.75127471
       24.838761  8.1143985E-003  2.0288122E-003       1.7790058       1.7658269      0.74633243
       25.141673     0.011866270  1.3797741E-003       1.8036917       1.7903767      0.74369814
       25.444584     0.015791903  7.0892812E-004       1.8285473       1.8150487      0.74370614
       25.747496     0.019853372  1.5014457E-005       1.8535815       1.8398451      0.74660561
       26.050408     0.024011302 -7.0241841E-004       1.8788013       1.8647682      0.75253863
       26.353320     0.028226948 -1.4428062E-003       1.9042120       1.8898206      0.76152152
       26.656231     0.032463942 -2.2044047E-003       1.9298157       1.9150045      0.77343083
       26.959143     0.036688946 -2.9842106E-003       1.9556120       1.9403224      0.78799558
       27.262055     0.040870423 -3.7780266E-003       1.9815974       1.9657768      0.80479696
       27.564967     0.044974829 -4.5807468E-003       2.0077649       1.9913704      0.82327705
       27.867878     0.048960278 -5.3869595E-003       2.0341049       2.0171056      0.84275856
       28.170790     0.052769248 -6.1919751E-003       2.0606054       2.0429850      0.86247938
       28.473702     0.056324531 -6.9933802E-003       2.0872529       2.0690115      0.88164866
       28.776613     0.059536262 -7.7931750E-003       2.1140346       2.0951876      0.89953729
       29.079525     0.062331568 -8.6004379E-003       2.1409413       2.1215162      0.91562368
       29.382437     0.064720415 -9.4342518E-003       2.1679727       2.1480000      0.92982619
       29.685349     0.066907270    -0.010326302       2.1951459       2.1746420      0.94286139
       29.988260     0.069447408    -0.011322146       2.2225077       2.2014451      0.95676445
       30.291172     0.073425208    -0.012479795       2.2501521       2.2284122      0.97558069
