Results for:	
File:	C:\Users\User\OneDrive - Massachusetts Institute of Technology\Documents\MIT\Grad School\Classes\2.156\Lens Project\Prime Lenses\US02601593-1.zmx
Title:	
Date:	11/7/2025 5:42:44 PM

0 message(s) in output.
3 series table(s) in output.

Table series: Data for wavelength : 0.486133 µm.
   Y Angle (deg)       Tan Shift       Sag Shift     Real Height     Ref. Height      Distortion
  --------------  --------------  --------------  --------------  --------------  --------------
      0.00000000     0.041418026     0.041418026      0.00000000      0.00000000      0.00000000
      0.30000000     0.041376124     0.041364573      0.13115510      0.13115507  2.0684712E-005
      0.60000000     0.041252802     0.041204246      0.26231742      0.26231733  3.1468613E-005
      0.90000000     0.041048030     0.040937145      0.39349418      0.39349398  4.9429144E-005
       1.2000000     0.040761756     0.040563437      0.52469260      0.52469221  7.4539976E-005
       1.5000000     0.040393905     0.040083355      0.65591993      0.65591923  1.0678932E-004
       1.8000000     0.039944384     0.039497201      0.78718338      0.78718223  1.4613551E-004
       2.1000000     0.039413081     0.038805341      0.91849020      0.91848844  1.9253662E-004
       2.4000000     0.038799862     0.038008212       1.0498477       1.0498451  2.4594298E-004
       2.7000000     0.038104577     0.037106318       1.1812630       1.1812594  3.0629715E-004
       3.0000000     0.037327054     0.036100232       1.3127435       1.3127386  3.7353378E-004
       3.3000000     0.036467107     0.034990596       1.4442965       1.4442900  4.4757961E-004
       3.6000000     0.035524532     0.033778121       1.5759292       1.5759209  5.2835337E-004
       3.9000000     0.034499111     0.032463592       1.7076490       1.7076385  6.1576565E-004
       4.2000000     0.033390607     0.031047862       1.8394632       1.8394501  7.0971882E-004
       4.5000000     0.032198776     0.029531859       1.9713792       1.9713632  8.1010691E-004
       4.8000000     0.030923357     0.027916582       2.1034043       2.1033851  9.1681551E-004
       5.1000000     0.029564080     0.026203107       2.2355461       2.2355231  1.0297216E-003
       5.4000000     0.028120668     0.024392583       2.3678118       2.3677846  1.1486934E-003
       5.7000000     0.026592832     0.022486237       2.5002090       2.5001771  1.2735903E-003
       6.0000000     0.024980283     0.020485376       2.6327451       2.6327081  1.4042625E-003
       6.3000000     0.023282725     0.018391382       2.7654277       2.7653851  1.5405511E-003
       6.6000000     0.021499862     0.016205722       2.8982643       2.8982155  1.6822878E-003
       6.9000000     0.019631397     0.013929944       3.0312624       3.0312070  1.8292945E-003
       7.2000000     0.017677040     0.011565678       3.1644298       3.1643671  1.9813834E-003
       7.5000000     0.015636505  9.1146433E-003       3.2977740       3.2977035  2.1383565E-003
       7.8000000     0.013509514  6.5786450E-003       3.4313027       3.4312238  2.3000058E-003
       8.1000000     0.011295804  3.9595781E-003       3.5650237       3.5649358  2.4661124E-003
       8.4000000  8.9951245E-003  1.2594292E-003       3.6989448       3.6988473  2.6364468E-003
       8.7000000  6.6072468E-003 -1.5197206E-003       3.8330737       3.8329659  2.8107683E-003
       9.0000000  4.1319632E-003 -4.3756946E-003       3.9674183       3.9672997  2.9888249E-003
       9.3000000  1.5690933E-003 -7.3062175E-003       4.1019865       4.1018565  3.1703529E-003
       9.6000000 -1.0815119E-003    -0.010308912       4.2367863       4.2366442  3.3550765E-003
       9.9000000 -3.8199659E-003    -0.013381299       4.3718257       4.3716709  3.5427078E-003
       10.200000 -6.6463410E-003    -0.016520791       4.5071128       4.5069445  3.7329458E-003
       10.500000 -9.5606637E-003    -0.019724690       4.6426556       4.6424733  3.9254768E-003
       10.800000    -0.012562909    -0.022990189       4.7784623       4.7782654  4.1199734E-003
       11.100000    -0.015652993    -0.026314362       4.9145412       4.9143291  4.3160944E-003
       11.400000    -0.018830770    -0.029694165       5.0509005       5.0506725  4.5134845E-003
       11.700000    -0.022096021    -0.033126431       5.1875486       5.1873042  4.7117732E-003
       12.000000    -0.025448450    -0.036607866       5.3244940       5.3242325  4.9105752E-003
       12.300000    -0.028887675    -0.040135046       5.4617450       5.4614660  5.1094894E-003
       12.600000    -0.032413220    -0.043704413       5.5993103       5.5990131  5.3080984E-003
       12.900000    -0.036024505    -0.047312269       5.7371984       5.7368826  5.5059680E-003
       13.200000    -0.039720839    -0.050954775       5.8754181       5.8750831  5.7026468E-003
       13.500000    -0.043501409    -0.054627941       6.0139782       6.0136235  5.8976656E-003
       13.800000    -0.047365266    -0.058327626       6.1528874       6.1525127  6.0905365E-003
       14.100000    -0.051311321    -0.062049531       6.2921547       6.2917595  6.2807524E-003
       14.400000    -0.055338328    -0.065789191       6.4317891       6.4313732  6.4677867E-003
       14.700000    -0.059444870    -0.069541977       6.5717997       6.5713627  6.6510920E-003
       15.000000    -0.063629351    -0.073303079       6.7121957       6.7117373  6.8300997E-003
       15.300000    -0.067889974    -0.077067511       6.8529864       6.8525064  7.0042192E-003
       15.600000    -0.072224736    -0.080830095       6.9941810       6.9936793  7.1728372E-003
       15.900000    -0.076631400    -0.084585461       7.1357890       7.1352656  7.3353165E-003
       16.200000    -0.081107486    -0.088328036       7.2778201       7.2772749  7.4909957E-003
       16.500000    -0.085650252    -0.092052041       7.4202838       7.4197170  7.6391876E-003
       16.800000    -0.090256669    -0.095751475       7.5631898       7.5626015  7.7791789E-003
       17.100000    -0.094923407    -0.099420115       7.7065481       7.7059385  7.9102286E-003
       17.400000    -0.099646808     -0.10305150       7.8503685       7.8497381  8.0315676E-003
       17.700000     -0.10442286     -0.10663894       7.9946612       7.9940103  8.1423970E-003
       18.000000     -0.10924719     -0.11017548       8.1394363       8.1387655  8.2418873E-003
       18.300000     -0.11411500     -0.11365389       8.2847041       8.2840141  8.3291769E-003
       18.600000     -0.11902110     -0.11706670       8.4304750       8.4297666  8.4033714E-003
       18.900000     -0.12395979     -0.12040614       8.5767595       8.5760337  8.4635415E-003
       19.200000     -0.12892493     -0.12366413       8.7235683       8.7228261  8.5087225E-003
       19.500000     -0.13390983     -0.12683231       8.8709122       8.8701549  8.5379120E-003
       19.800000     -0.13890722     -0.12990199       9.0188020       9.0180310  8.5500690E-003
       20.100000     -0.14390928     -0.13286413       9.1672488       9.1664656  8.5441120E-003
       20.400000     -0.14890751     -0.13570937       9.3162638       9.3154702  8.5189174E-003
       20.700000     -0.15389273     -0.13842797       9.4658583       9.4650563  8.4733177E-003
       21.000000     -0.15885506     -0.14100983       9.6160437       9.6152354  8.4060999E-003
       21.300000     -0.16378380     -0.14344444       9.7668316       9.7660195  8.3160033E-003
       21.600000     -0.16866746     -0.14572089       9.9182338       9.9174204  8.2017176E-003
       21.900000     -0.17349364     -0.14782783       10.070262       10.069450  8.0618808E-003
       22.200000     -0.17824900     -0.14975348       10.222929       10.222122  7.8950768E-003
       22.500000     -0.18291919     -0.15148558       10.376246       10.375447  7.6998332E-003
       22.800000     -0.18748879     -0.15301140       10.530226       10.529439  7.4746191E-003
       23.100000     -0.19194123     -0.15431767       10.684881       10.684110  7.2178418E-003
       23.400000     -0.19625872     -0.15539062       10.840224       10.839473  6.9278448E-003
       23.700000     -0.20042217     -0.15621590       10.996268       10.995542  6.6029046E-003
       24.000000     -0.20441109     -0.15677858       11.153027       11.152331  6.2412277E-003
       24.300000     -0.20820352     -0.15706312       11.310512       11.309852  5.8409474E-003
       24.600000     -0.21177590     -0.15705336       11.468738       11.468119  5.4001207E-003
       24.900000     -0.21510300     -0.15673244       11.627719       11.627147  4.9167245E-003
       25.200000     -0.21815778     -0.15608282       11.787468       11.786950  4.3886519E-003
       25.500000     -0.22091128     -0.15508621       11.947999       11.947543  3.8137085E-003
       25.800000     -0.22333251     -0.15372356       12.109326       12.108940  3.1896082E-003
       26.100000     -0.22538827     -0.15197500       12.271464       12.271155  2.5139688E-003
       26.400000     -0.22704303     -0.14981981       12.434427       12.434206  1.7843074E-003
       26.700000     -0.22825877     -0.14723638       12.598231       12.598105  9.9803559E-004
       27.000000     -0.22899481     -0.14420217       12.762890       12.762871  1.5245444E-004
       27.300000     -0.22920763     -0.14069365       12.928420       12.928518 -7.5525104E-004
       27.600000     -0.22885066     -0.13668623       13.094836       13.095063 -1.7280175E-003
       27.900000     -0.22787408     -0.13215428       13.262154       13.262522 -2.7689095E-003
       28.200000     -0.22622459     -0.12707096       13.430391       13.430912 -3.8811254E-003
       28.500000     -0.22384520     -0.12140828       13.599561       13.600250 -5.0680047E-003
       28.800000     -0.22067489     -0.11513694       13.769682       13.770554 -6.3330347E-003
       29.100000     -0.21664843     -0.10822632       13.940770       13.941841 -7.6798583E-003
       29.400000     -0.21169597     -0.10064436       14.112843       14.114130 -9.1122819E-003
       29.700000     -0.20574279    -0.092357528       14.285918       14.287438    -0.010634284
       30.000000     -0.19870893    -0.083330718       14.460012       14.461784    -0.012250024

Table series: Data for wavelength : 0.587562 µm.
   Y Angle (deg)       Tan Shift       Sag Shift     Real Height     Ref. Height      Distortion
  --------------  --------------  --------------  --------------  --------------  --------------
      0.00000000     0.050826902     0.050826902      0.00000000      0.00000000      0.00000000
      0.30000000     0.050783077     0.050770383      0.13115634      0.13115634  3.2420310E-006
      0.60000000     0.050653942     0.050600858      0.26231990      0.26231986  1.2939470E-005
      0.90000000     0.050439468     0.050318426      0.39349789      0.39349777  2.9089013E-005
       1.2000000     0.050139610     0.049923250      0.52469754      0.52469727  5.1662321E-005
       1.5000000     0.049754301     0.049415559      0.65592607      0.65592555  8.0650496E-005
       1.8000000     0.049283457     0.048795650      0.78719073      0.78718981  1.1600960E-004
       2.1000000     0.048726978     0.048063883      0.91849873      0.91849729  1.5769699E-004
       2.4000000     0.048084745     0.047220687       1.0498573       1.0498552  2.0566213E-004
       2.7000000     0.047356622     0.046266557       1.1812738       1.1812708  2.5984655E-004
       3.0000000     0.046542459     0.045202057       1.3127555       1.3127512  3.2018383E-004
       3.3000000     0.045642090     0.044027816       1.4443095       1.4443039  3.8659942E-004
       3.6000000     0.044655332     0.042744535       1.5759433       1.5759360  4.5901065E-004
       3.9000000     0.043581993     0.041352983       1.7076641       1.7076549  5.3732659E-004
       4.2000000     0.042421866     0.039854000       1.8394793       1.8394679  6.2144794E-004
       4.5000000     0.041174733     0.038248495       1.9713962       1.9713822  7.1126695E-004
       4.8000000     0.039840367     0.036537453       2.1034223       2.1034053  8.0666726E-004
       5.1000000     0.038418533     0.034721928       2.2355649       2.2355446  9.0752378E-004
       5.4000000     0.036908988     0.032803051       2.3678314       2.3678074  1.0137025E-003
       5.7000000     0.035311484     0.030782027       2.5002294       2.5002012  1.1250606E-003
       6.0000000     0.033625771     0.028660139       2.6327662       2.6327335  1.2414457E-003
       6.3000000     0.031851597     0.026438745       2.7654494       2.7654117  1.3626963E-003
       6.6000000     0.029988711     0.024119286       2.8982866       2.8982434  1.4886412E-003
       6.9000000     0.028036865     0.021703281       3.0312853       3.0312362  1.6190997E-003
       7.2000000     0.025995818     0.019192334       3.1644531       3.1643976  1.7538807E-003
       7.5000000     0.023865335     0.016588131       3.2977977       3.2977352  1.8927833E-003
       7.8000000     0.021645196     0.013892446       3.4313267       3.4312569  2.0355960E-003
       8.1000000     0.019335191     0.011107140       3.5650480       3.5649702  2.1820965E-003
       8.4000000     0.016935132  8.2341643E-003       3.6989692       3.6988829  2.3320517E-003
       8.7000000     0.014444849  5.2755610E-003       3.8330981       3.8330029  2.4852172E-003
       9.0000000     0.011864198  2.2334684E-003       3.9674427       3.9673380  2.6413371E-003
       9.3000000  9.1930656E-003 -8.8987957E-004       4.1020109       4.1018960  2.8001437E-003
       9.6000000  6.4313701E-003 -4.0921494E-003       4.2368105       4.2366850  2.9613571E-003
       9.9000000  3.5790684E-003 -7.3709060E-003       4.3718496       4.3717130  3.1246850E-003
       10.200000  6.3616044E-004    -0.010723610       4.5071362       4.5069880  3.2898220E-003
       10.500000 -2.3973059E-003    -0.014147614       4.6426785       4.6425181  3.4564498E-003
       10.800000 -5.5212284E-003    -0.017640160       4.7784847       4.7783115  3.6242363E-003
       11.100000 -8.7354456E-003    -0.021198380       4.9145628       4.9143764  3.7928355E-003
       11.400000    -0.012039730    -0.024819282       5.0509213       5.0507212  3.9618868E-003
       11.700000    -0.015433780    -0.028499761       5.1875685       5.1873542  4.1310148E-003
       12.000000    -0.018917215    -0.032236584       5.3245128       5.3242838  4.2998288E-003
       12.300000    -0.022489566    -0.036026392       5.4617626       5.4615186  4.4679222E-003
       12.600000    -0.026150269    -0.039865692       5.5993265       5.5990670  4.6348720E-003
       12.900000    -0.029898655    -0.043750859       5.7372132       5.7369378  4.8002382E-003
       13.200000    -0.033733939    -0.047678123       5.8754313       5.8751397  4.9635637E-003
       13.500000    -0.037655215    -0.051643573       6.0139896       6.0136815  5.1243730E-003
       13.800000    -0.041661441    -0.055643146       6.1528969       6.1525720  5.2821721E-003
       14.100000    -0.045751430    -0.059672626       6.2921622       6.2918202  5.4364477E-003
       14.400000    -0.049923839    -0.063727636       6.4317944       6.4314351  5.5866665E-003
       14.700000    -0.054177153    -0.067803634       6.5718027       6.5714260  5.7322745E-003
       15.000000    -0.058509676    -0.071895906       6.7121961       6.7118020  5.8726964E-003
       15.300000    -0.062919513    -0.075999562       6.8529841       6.8525724  6.0073347E-003
       15.600000    -0.067404557    -0.080109528       6.9941758       6.9937467  6.1355689E-003
       15.900000    -0.071962473    -0.084220539       7.1357808       7.1353344  6.2567548E-003
       16.200000    -0.076590678    -0.088327134       7.2778086       7.2773451  6.3702234E-003
       16.500000    -0.081286329    -0.092423647       7.4202689       7.4197884  6.4752802E-003
       16.800000    -0.086046298    -0.096504200       7.5631713       7.5626744  6.5712042E-003
       17.100000    -0.090867153     -0.10056269       7.7065258       7.7060128  6.6572468E-003
       17.400000    -0.095745138     -0.10459281       7.8503422       7.8498137  6.7326308E-003
       17.700000     -0.10067615     -0.10858797       7.9946307       7.9940873  6.7965493E-003
       18.000000     -0.10565570     -0.11254138       8.1394013       8.1388439  6.8481648E-003
       18.300000     -0.11067893     -0.11644596       8.2846644       8.2840939  6.8866074E-003
       18.600000     -0.11574052     -0.12029439       8.4304304       8.4298478  6.9109743E-003
       18.900000     -0.12083471     -0.12407906       8.5767098       8.5761163  6.9203279E-003
       19.200000     -0.12595527     -0.12779207       8.7235133       8.7229102  6.9136946E-003
       19.500000     -0.13109542     -0.13142523       8.8708515       8.8702403  6.8900635E-003
       19.800000     -0.13624783     -0.13497002       9.0187355       9.0181179  6.8483847E-003
       20.100000     -0.14140459     -0.13841763       9.1671762       9.1665540  6.7875679E-003
       20.400000     -0.14655715     -0.14175887       9.3161848       9.3155600  6.7064806E-003
       20.700000     -0.15169628     -0.14498422       9.4657726       9.4651475  6.6039462E-003
       21.000000     -0.15681203     -0.14808380       9.6159510       9.6153281  6.4787427E-003
       21.300000     -0.16189368     -0.15104734       9.7667317       9.7661136  6.3296002E-003
       21.600000     -0.16692969     -0.15386415       9.9181264       9.9175160  6.1551993E-003
       21.900000     -0.17190765     -0.15652316       10.070147       10.069547  5.9541686E-003
       22.200000     -0.17681420     -0.15901283       10.222805       10.222220  5.7250830E-003
       22.500000     -0.18163501     -0.16132120       10.376114       10.375547  5.4664610E-003
       22.800000     -0.18635467     -0.16343580       10.530085       10.529540  5.1767623E-003
       23.100000     -0.19095665     -0.16534369       10.684731       10.684213  4.8543851E-003
       23.400000     -0.19542321     -0.16703139       10.840065       10.839578  4.4976640E-003
       23.700000     -0.19973532     -0.16848491       10.996100       10.995648  4.1048662E-003
       24.000000     -0.20387258     -0.16968966       11.152848       11.152438  3.6741896E-003
       24.300000     -0.20781315     -0.17063047       11.310323       11.309961  3.2037586E-003
       24.600000     -0.21153360     -0.17129155       11.468538       11.468230  2.6916217E-003
       24.900000     -0.21500888     -0.17165645       11.627508       11.627259  2.1357471E-003
       25.200000     -0.21821213     -0.17170806       11.787245       11.787064  1.5340201E-003
       25.500000     -0.22111462     -0.17142852       11.947764       11.947658  8.8423817E-004
       25.800000     -0.22368560     -0.17079925       12.109079       12.109056  1.8410762E-004
       26.100000     -0.22589219     -0.16980088       12.271204       12.271274 -5.6876106E-004
       26.400000     -0.22769918     -0.16841320       12.434154       12.434325 -1.3768576E-003
       26.700000     -0.22906895     -0.16661515       12.597944       12.598227 -2.2427769E-003
       27.000000     -0.22996124     -0.16438474       12.762589       12.762994 -3.1692238E-003
       27.300000     -0.23033301     -0.16169905       12.928105       12.928643 -4.1590187E-003
       27.600000     -0.23013822     -0.15853414       13.094506       13.095189 -5.2151031E-003
       27.900000     -0.22932766     -0.15486501       13.261809       13.262649 -6.3405455E-003
       28.200000     -0.22784871     -0.15066556       13.430029       13.431041 -7.5385476E-003
       28.500000     -0.22564508     -0.14590851       13.599183       13.600381 -8.8124514E-003
       28.800000     -0.22265662     -0.14056535       13.769287       13.770687    -0.010165746
       29.100000     -0.21881896     -0.13460627       13.940358       13.941975    -0.011602074
       29.400000     -0.21406327     -0.12800010       14.112413       14.114266    -0.013125242
       29.700000     -0.20831594     -0.12071422       14.285469       14.287575    -0.014739225
       30.000000     -0.20149818     -0.11271449       14.459545       14.461923    -0.016448181

Table series: Data for wavelength : 0.656273 µm.
   Y Angle (deg)       Tan Shift       Sag Shift     Real Height     Ref. Height      Distortion
  --------------  --------------  --------------  --------------  --------------  --------------
      0.00000000     0.076157050     0.076157050      0.00000000      0.00000000      0.00000000
      0.30000000     0.076112757     0.076099384      0.13115687      0.13115688 -8.1839071E-006
      0.60000000     0.075982191     0.075926418      0.26232096      0.26232096  1.0611318E-006
      0.90000000     0.075765326     0.075638250      0.39349949      0.39349942  1.6456585E-005
       1.2000000     0.075462117     0.075235043      0.52469967      0.52469947  3.7969447E-005
       1.5000000     0.075072502     0.074717024      0.65592872      0.65592829  6.5599716E-005
       1.8000000     0.074596401     0.074084488      0.78719389      0.78719311  9.9298680E-005
       2.1000000     0.074033720     0.073337794      0.91850241      0.91850113  1.3902339E-004
       2.4000000     0.073384344     0.072477367       1.0498615       1.0498596  1.8472298E-004
       2.7000000     0.072648148     0.071503701       1.1812785       1.1812757  2.3633859E-004
       3.0000000     0.071824987     0.070417355       1.3127606       1.3127567  2.9380332E-004
       3.3000000     0.070914704     0.069218957       1.4443151       1.4443100  3.5704216E-004
       3.6000000     0.069917130     0.067909201       1.5759494       1.5759426  4.2597186E-004
       3.9000000     0.068832081     0.066488854       1.7076706       1.7076621  5.0050089E-004
       4.2000000     0.067659363     0.064958749       1.8394862       1.8394756  5.8052928E-004
       4.5000000     0.066398771     0.063319792       1.9714036       1.9713905  6.6594858E-004
       4.8000000     0.065050093     0.061572960       2.1034301       2.1034141  7.5664164E-004
       5.1000000     0.063613109     0.059719304       2.2355730       2.2355540  8.5248256E-004
       5.4000000     0.062087591     0.057759945       2.3678399       2.3678173  9.5333651E-004
       5.7000000     0.060473310     0.055696084       2.5002382       2.5002117  1.0590596E-003
       6.0000000     0.058770034     0.053528994       2.6327753       2.6327445  1.1694985E-003
       6.3000000     0.056977530     0.051260028       2.7654588       2.7654233  1.2844908E-003
       6.6000000     0.055095566     0.048890616       2.8982963       2.8982556  1.4038642E-003
       6.9000000     0.053123918     0.046422270       3.0312952       3.0312489  1.5274366E-003
       7.2000000     0.051062366     0.043856584       3.1644632       3.1644108  1.6550161E-003
       7.5000000     0.048910698     0.041195234       3.2978080       3.2977491  1.7864002E-003
       7.8000000     0.046668719     0.038439983       3.4313372       3.4312712  1.9213762E-003
       8.1000000     0.044336245     0.035592682       3.5650585       3.5649851  2.0597204E-003
       8.4000000     0.041913114     0.032655269       3.6989798       3.6988984  2.2011983E-003
       8.7000000     0.039399183     0.029629777       3.8331088       3.8330189  2.3455641E-003
       9.0000000     0.036794339     0.026518329       3.9674535       3.9673546  2.4925604E-003
       9.3000000     0.034098496     0.023323146       4.1020216       4.1019132  2.6419177E-003
       9.6000000     0.031311605     0.020046549       4.2368211       4.2367028  2.7933546E-003
       9.9000000     0.028433653     0.016690956       4.3718601       4.3717313  2.9465770E-003
       10.200000     0.025464674     0.013258893       4.5071466       4.5070069  3.1012779E-003
       10.500000     0.022404750  9.7529912E-003       4.6426887       4.6425375  3.2571371E-003
       10.800000     0.019254017  6.1759899E-003       4.7784946       4.7783315  3.4138206E-003
       11.100000     0.016012674  2.5307429E-003       4.9145725       4.9143970  3.5709804E-003
       11.400000     0.012680985 -1.1797808E-003       5.0509307       5.0507424  3.7282541E-003
       11.700000  9.2592905E-003 -4.9524917E-003       5.1875775       5.1873759  3.8852642E-003
       12.000000  5.7480092E-003 -8.7841782E-003       5.3245213       5.3243061  4.0416179E-003
       12.300000  2.1476502E-003    -0.012671502       5.4617707       5.4615415  4.1969064E-003
       12.600000 -1.5411802E-003    -0.016610992       5.5993341       5.5990905  4.3507044E-003
       12.900000 -5.3177707E-003    -0.020599046       5.7372202       5.7369619  4.5025700E-003
       13.200000 -9.1812947E-003    -0.024631919       5.8754376       5.8751643  4.6520434E-003
       13.500000    -0.013130801    -0.028705724       6.0139952       6.0137067  4.7986469E-003
       13.800000    -0.017165203    -0.032816424       6.1529018       6.1525977  4.9418840E-003
       14.100000    -0.021283269    -0.036959830       6.2921662       6.2918465  5.0812390E-003
       14.400000    -0.025483608    -0.041131593       6.4317976       6.4314621  5.2161759E-003
       14.700000    -0.029764658    -0.045327202       6.5718048       6.5714535  5.3461383E-003
       15.000000    -0.034124674    -0.049541973       6.7121973       6.7118301  5.4705481E-003
       15.300000    -0.038561712    -0.053771048       6.8529841       6.8526011  5.5888051E-003
       15.600000    -0.043073618    -0.058009386       6.9941747       6.9937760  5.7002862E-003
       15.900000    -0.047658004    -0.062251759       7.1357785       7.1353643  5.8043443E-003
       16.200000    -0.052312238    -0.066492741       7.2778049       7.2773756  5.9003075E-003
       16.500000    -0.057033425    -0.070726705       7.4202638       7.4198195  5.9874784E-003
       16.800000    -0.061818386    -0.074947813       7.5631647       7.5627061  6.0651331E-003
       17.100000    -0.066663637    -0.079150008       7.7065176       7.7060451  6.1325199E-003
       17.400000    -0.071565370    -0.083327009       7.8503324       7.8498466  6.1888587E-003
       17.700000    -0.076519428    -0.087472297       7.9946191       7.9941208  6.2333394E-003
       18.000000    -0.081521280    -0.091579110       8.1393880       8.1388780  6.2651213E-003
       18.300000    -0.086565997    -0.095640433       8.2846492       8.2841286  6.2833315E-003
       18.600000    -0.091648224    -0.099648985       8.4304132       8.4298832  6.2870639E-003
       18.900000    -0.096762151     -0.10359721       8.5766904       8.5761523  6.2753775E-003
       19.200000     -0.10190148     -0.10747728       8.7234917       8.7229467  6.2472957E-003
       19.500000     -0.10705939     -0.11128104       8.8708276       8.8702775  6.2018040E-003
       19.800000     -0.11222851     -0.11500006       9.0187092       9.0181557  6.1378494E-003
       20.100000     -0.11740088     -0.11862557       9.1671474       9.1665924  6.0543380E-003
       20.400000     -0.12256790     -0.12214846       9.3161533       9.3155990  5.9501341E-003
       20.700000     -0.12772028     -0.12555929       9.4657384       9.4651872  5.8240576E-003
       21.000000     -0.13284805     -0.12884823       9.6159140       9.6153684  5.6748831E-003
       21.300000     -0.13794045     -0.13200510       9.7666918       9.7661545  5.5013374E-003
       21.600000     -0.14298588     -0.13501931       9.9180834       9.9175575  5.3020974E-003
       21.900000     -0.14797192     -0.13787984       10.070101       10.069590  5.0757886E-003
       22.200000     -0.15288516     -0.14057527       10.222756       10.222263  4.8209823E-003
       22.500000     -0.15771125     -0.14309371       10.376061       10.375590  4.5361936E-003
       22.800000     -0.16243474     -0.14542281       10.530029       10.529584  4.2198789E-003
       23.100000     -0.16703910     -0.14754971       10.684671       10.684257  3.8704332E-003
       23.400000     -0.17150656     -0.14946107       10.840001       10.839623  3.4861876E-003
       23.700000     -0.17581809     -0.15114298       10.996031       10.995694  3.0654063E-003
       24.000000     -0.17995328     -0.15258098       11.152775       11.152485  2.6062839E-003
       24.300000     -0.18389029     -0.15376004       11.310246       11.310008  2.1069418E-003
       24.600000     -0.18760572     -0.15466448       11.468457       11.468278  1.5654253E-003
       24.900000     -0.19107450     -0.15527800       11.627422       11.627308  9.7970013E-004
       25.200000     -0.19426982     -0.15558362       11.787154       11.787113  3.4764846E-004
       25.500000     -0.19716298     -0.15556366       11.947668       11.947708 -3.3293465E-004
       25.800000     -0.19972329     -0.15519969       12.108978       12.109107 -1.0643454E-003
       26.100000     -0.20191791     -0.15447249       12.271098       12.271325 -1.8489757E-003
       26.400000     -0.20371172     -0.15336204       12.434043       12.434377 -2.6893172E-003
       26.700000     -0.20506716     -0.15184747       12.597828       12.598280 -3.5879667E-003
       27.000000     -0.20594408     -0.14990699       12.762467       12.763047 -4.5476308E-003
       27.300000     -0.20629954     -0.14751788       12.927976       12.928697 -5.5711311E-003
       27.600000     -0.20608767     -0.14465642       13.094371       13.095244 -6.6614102E-003
       27.900000     -0.20525938     -0.14129785       13.261668       13.262705 -7.8215372E-003
       28.200000     -0.20376224     -0.13741630       13.429881       13.431097 -9.0547144E-003
       28.500000     -0.20154015     -0.13298475       13.599029       13.600438    -0.010364284
       28.800000     -0.19853317     -0.12797496       13.769126       13.770744    -0.011753733
       29.100000     -0.19467720     -0.12235743       13.940190       13.942034    -0.013226705
       29.400000     -0.18990368     -0.11610126       14.112238       14.114325    -0.014787004
       29.700000     -0.18413930     -0.10917417       14.285286       14.287635    -0.016438604
       30.000000     -0.17730565     -0.10154236       14.459354       14.461984    -0.018185658
