Results for:	
File:	C:\Users\User\OneDrive - Massachusetts Institute of Technology\Documents\MIT\Grad School\Classes\2.156\Lens Project\Prime Lenses\US08125719-1.ZMX
Title:	
Date:	11/7/2025 5:49:33 PM

0 message(s) in output.
3 series table(s) in output.

Table series: Data for wavelength : 0.486133 µm.
   Y Angle (deg)       Tan Shift       Sag Shift     Real Height     Ref. Height      Distortion
  --------------  --------------  --------------  --------------  --------------  --------------
      0.00000000 -5.9195062E-003 -5.9195062E-003      0.00000000      0.00000000      0.00000000
      0.30000000 -5.9441139E-003 -5.9361668E-003     0.018882974     0.018882917  3.0601504E-004
      0.60000000 -6.0164306E-003 -5.9859616E-003     0.037767332     0.037766869  1.2267662E-003
      0.90000000 -6.1339025E-003 -6.0683324E-003     0.056654461     0.056652892  2.7702841E-003
       1.2000000 -6.2923610E-003 -6.1823580E-003     0.075545761     0.075542022  4.9497048E-003
       1.5000000 -6.4861255E-003 -6.3267690E-003     0.094442646     0.094435296  7.7828969E-003
       1.8000000 -6.7081429E-003 -6.4999665E-003      0.11334655      0.11333375     0.011291948
       2.1000000 -6.9501625E-003 -6.7000470E-003      0.13225893      0.13223843     0.015502516
       2.4000000 -7.2029414E-003 -6.9248313E-003      0.15118127      0.15115037     0.020443059
       2.7000000 -7.4564770E-003 -7.1718977E-003      0.17011507      0.17007060     0.026143943
       3.0000000 -7.7002604E-003 -7.4386194E-003      0.18906187      0.18900019     0.032636455
       3.3000000 -7.9235469E-003 -7.7222043E-003      0.20802324      0.20794017     0.039951727
       3.6000000 -8.1156387E-003 -8.0197380E-003      0.22700076      0.22689158     0.048119583
       3.9000000 -8.2661704E-003 -8.3282280E-003      0.24599604      0.24585549     0.057167343
       4.2000000 -8.3653969E-003 -8.6446499E-003      0.26501069      0.26483294     0.067118579
       4.5000000 -8.4044738E-003 -8.9659934E-003      0.28404635      0.28382499     0.077991868
       4.8000000 -8.3757260E-003 -9.2893085E-003      0.30310464      0.30283270     0.089799537
       5.1000000 -8.2728991E-003 -9.6117507E-003      0.32218719      0.32185713      0.10254645
       5.4000000 -8.0913879E-003 -9.9306243E-003      0.34129558      0.34089935      0.11622882
       5.7000000 -7.8284362E-003    -0.010243424      0.36043138      0.35996043      0.13083314
       6.0000000 -7.4833039E-003    -0.010547873      0.37959612      0.37904145      0.14633513
       6.3000000 -7.0573951E-003    -0.010841956      0.39879125      0.39814347      0.16269887
       6.6000000 -6.5543449E-003    -0.011123955      0.41801816      0.41726760      0.17987605
       6.9000000 -5.9800580E-003    -0.011392468      0.43727816      0.43641491      0.19780535
       7.2000000 -5.3426987E-003    -0.011646434      0.45657244      0.45558650      0.21641202
       7.5000000 -4.6526264E-003    -0.011885148      0.47590209      0.47478347      0.23560765
       7.8000000 -3.9222774E-003    -0.012108270      0.49526807      0.49400692      0.25529017
       8.1000000 -3.1659909E-003    -0.012315828      0.51467119      0.51325797      0.27534403
       8.4000000 -2.3997697E-003    -0.012508213      0.53411213      0.53253773      0.29564063
       8.7000000 -1.6410088E-003    -0.012686174      0.55359139      0.55184733      0.31603904
       9.0000000 -9.0814225E-004    -0.012850801      0.57310930      0.57118790      0.33638690
       9.3000000 -2.2026441E-004    -0.013003502      0.59266605      0.59056057      0.35652163
       9.6000000  4.0329857E-004    -0.013145978      0.61226163      0.60996649      0.37627184
       9.9000000  9.4344834E-004    -0.013280188      0.63189587      0.62940682      0.39545905
       10.200000  1.3817964E-003    -0.013408316      0.65156843      0.64888271      0.41389955
       10.500000  1.7011566E-003    -0.013532725      0.67127883      0.66839533      0.43140659
       10.800000  1.8860351E-003    -0.013655916      0.69102643      0.68794585      0.44779268
       11.100000  1.9231029E-003    -0.013780477      0.71081046      0.70753548      0.46287212
       11.400000  1.8016355E-003    -0.013909033      0.73063007      0.72716539      0.47646363
       11.700000  1.5139061E-003    -0.014044200      0.75048429      0.74683679      0.48839317
       12.000000  1.0555162E-003    -0.014188528      0.77037214      0.76655090      0.49849673
       12.300000  4.2565237E-004    -0.014344457      0.79029257      0.78630895      0.50662323
       12.600000 -3.7274338E-004    -0.014514266      0.81024459      0.80611215      0.51263737
       12.900000 -1.3328959E-003    -0.014700031      0.83022722      0.82596177      0.51642240
       13.200000 -2.4442186E-003    -0.014903581      0.85023961      0.84585905      0.51788277
       13.500000 -3.6924341E-003    -0.015126468      0.87028101      0.86580526      0.51694660
       13.800000 -5.0597943E-003    -0.015369932      0.89035088      0.88580169      0.51356790
       14.100000 -6.5253906E-003    -0.015634881      0.91044887      0.90584961      0.50772850
       14.400000 -8.0655488E-003    -0.015921871      0.93057490      0.92595034      0.49943962
       14.700000 -9.6542948E-003    -0.016231101      0.95072921      0.94610518      0.48874301
       15.000000    -0.011263878    -0.016562408      0.97091235      0.96631548      0.47571166
       15.300000    -0.012865338    -0.016915271      0.99112528      0.98658256      0.46044998
       15.600000    -0.014429097    -0.017288827       1.0113693       1.0069078      0.44309347
       15.900000    -0.015925568    -0.017681890       1.0316463       1.0272925      0.42380782
       16.200000    -0.017325758    -0.018092973       1.0519583       1.0477382      0.40278742
       16.500000    -0.018601855    -0.018520325       1.0723082       1.0682461      0.38025331
       16.800000    -0.019727794    -0.018961963       1.0926989       1.0888178      0.35645053
       17.100000    -0.020679787    -0.019415714       1.1131340       1.1094546      0.33164495
       17.400000    -0.021436811    -0.019879261       1.1336176       1.1301580      0.30611955
       17.700000    -0.021981054    -0.020350185       1.1541540       1.1509294      0.28017025
       18.000000    -0.022298310    -0.020826015       1.1747479       1.1717704      0.25410132
       18.300000    -0.022378326    -0.021304275       1.1954044       1.1926824      0.22822043
       18.600000    -0.022215101    -0.021782529       1.2161287       1.2136670      0.20283341
       18.900000    -0.021807129    -0.022258428       1.2369264       1.2347256      0.17823887
       19.200000    -0.021157589    -0.022729754       1.2578030       1.2558599      0.15472271
       19.500000    -0.020274479    -0.023194454       1.2787642       1.2770714      0.13255257
       19.800000    -0.019170686    -0.023650682       1.2998155       1.2983617      0.11197249
       20.100000    -0.017863992    -0.024096828       1.3209624       1.3197325     0.093197701
       20.400000    -0.016376992    -0.024531543       1.3422100       1.3411853     0.076409792
       20.700000    -0.014736925    -0.024953762       1.3635633       1.3627217     0.061752246
       21.000000    -0.012975404    -0.025362719       1.3850265       1.3843436     0.049326579
       21.300000    -0.011128012    -0.025757955       1.4066036       1.4060526     0.039189089
       21.600000 -9.2337735E-003    -0.026139320       1.4282980       1.4278504     0.031348395
       21.900000 -7.3344657E-003    -0.026506973       1.4501123       1.4497388     0.025763828
       22.200000 -5.4737663E-003    -0.026861365       1.4720483       1.4717195     0.022344817
       22.500000 -3.6962317E-003    -0.027203228       1.4941073       1.4937943     0.020951347
       22.800000 -2.0461027E-003    -0.027533544       1.5162894       1.5159651     0.021395598
       23.100000 -5.6595178E-004    -0.027853517       1.5385943       1.5382337     0.023444851
       23.400000  7.0481028E-004    -0.028164533       1.5610207       1.5606020     0.026825724
       23.700000  1.7315294E-003    -0.028468113       1.5835663       1.5830719     0.031229795
       24.000000  2.4859592E-003    -0.028765864       1.6062285       1.6056453     0.036320649
       24.300000  2.9479071E-003    -0.029059416       1.6290040       1.6283243     0.041742323
       24.600000  3.1068031E-003    -0.029350364       1.6518888       1.6511107     0.047129117
       24.900000  2.9631164E-003    -0.029640192       1.6748790       1.6740066     0.052116682
       25.200000  2.5295367E-003    -0.029930208       1.6979704       1.6970141     0.056354209
       25.500000  1.8318451E-003    -0.030221461       1.7211590       1.7201352     0.059517525
       25.800000  9.0940025E-004    -0.030514667       1.7444412       1.7433721     0.061322786
       26.100000 -1.8482284E-004    -0.030810130       1.7678142       1.7667270     0.061540406
       26.400000 -1.3846991E-003    -0.031107668       1.7912762       1.7902020     0.060008748
       26.700000 -2.6119794E-003    -0.031406542       1.8148268       1.8137993     0.056647025
       27.000000 -3.7779376E-003    -0.031705398       1.8384669       1.8375212     0.051466762
       27.300000 -4.7857237E-003    -0.032002220       1.8621999       1.8613701     0.044581023
       27.600000 -5.5335484E-003    -0.032294312       1.8860309       1.8853482     0.036210538
       27.900000 -5.9188892E-003    -0.032578317       1.9099675       1.9094579     0.026685661
       28.200000 -5.8439987E-003    -0.032850276       1.9340197       1.9337017     0.016442985
       28.500000 -5.2231031E-003    -0.033105773       1.9581998       1.9580820  6.0152002E-003
       28.800000 -3.9917912E-003    -0.033340171       1.9825223       1.9826013 -3.9873719E-003
       29.100000 -2.1191731E-003    -0.033548988       2.0070032       2.0072622    -0.012905317
       29.400000  3.7663579E-004    -0.033728460       2.0316594       2.0320673    -0.020070533
       29.700000  3.4094255E-003    -0.033876347       2.0565078       2.0570191    -0.024860036
       30.000000  6.8026669E-003    -0.033993062       2.0815632       2.0821205    -0.026763789

Table series: Data for wavelength : 0.587562 µm.
   Y Angle (deg)       Tan Shift       Sag Shift     Real Height     Ref. Height      Distortion
  --------------  --------------  --------------  --------------  --------------  --------------
      0.00000000 -1.0220061E-003 -1.0220061E-003      0.00000000      0.00000000      0.00000000
      0.30000000 -1.0473694E-003 -1.0391708E-003     0.018891300     0.018891247  2.8117343E-004
      0.60000000 -1.1223290E-003 -1.0904787E-003     0.037783955     0.037783529  1.1273710E-003
      0.90000000 -1.2443410E-003 -1.1753743E-003     0.056679327     0.056677883  2.5465379E-003
       1.2000000 -1.4092528E-003 -1.2929408E-003     0.075578786     0.075575346  4.5516711E-003
       1.5000000 -1.6114051E-003 -1.4419148E-003     0.094483720     0.094476955  7.1604506E-003
       1.8000000 -1.8437718E-003 -1.6207051E-003      0.11339553      0.11338375     0.010394732
       2.1000000 -2.0981331E-003 -1.8274172E-003      0.13231566      0.13229676     0.014279909
       2.4000000 -2.3652805E-003 -2.0598824E-003      0.15124554      0.15121704     0.018844145
       2.7000000 -2.6352480E-003 -2.3156908E-003      0.17018666      0.17014563     0.024117501
       3.0000000 -2.8975645E-003 -2.5922283E-003      0.18914054      0.18908356     0.030130959
       3.3000000 -3.1415230E-003 -2.8867165E-003      0.20810869      0.20803190     0.036915355
       3.6000000 -3.3564611E-003 -3.1962553E-003      0.22709269      0.22699167     0.044500252
       3.9000000 -3.5320455E-003 -3.5178671E-003      0.24609409      0.24596395     0.052912750
       4.2000000 -3.6585580E-003 -3.8485425E-003      0.26511451      0.26494977     0.062176269
       4.5000000 -3.7271730E-003 -4.1852862E-003      0.28415552      0.28395020     0.072309312
       4.8000000 -3.7302252E-003 -4.5251629E-003      0.30321874      0.30296629     0.083324242
       5.1000000 -3.6614580E-003 -4.8653421E-003      0.32230574      0.32199912     0.095226074
       5.4000000 -3.5162494E-003 -5.2031415E-003      0.34141811      0.34104974      0.10801133
       5.7000000 -3.2918099E-003 -5.5360675E-003      0.36055737      0.36011922      0.12166696
       6.0000000 -2.9873469E-003 -5.8618535E-003      0.37972502      0.37920865      0.13616933
       6.3000000 -2.6041900E-003 -6.1784944E-003      0.39892250      0.39831911      0.15148340
       6.6000000 -2.1458758E-003 -6.4842764E-003      0.41815116      0.41745167      0.16756194
       6.9000000 -1.6181838E-003 -6.7778025E-003      0.43741229      0.43660742      0.18434495
       7.2000000 -1.0291247E-003 -7.0580136E-003      0.45670707      0.45578747      0.20175930
       7.5000000 -3.8887456E-004 -7.3242025E-003      0.47603656      0.47499291      0.21971845
       7.8000000  2.9034548E-004 -7.5760236E-003      0.49540170      0.49422484      0.23812252
       8.1000000  9.9444304E-004 -7.8134958E-003      0.51480331      0.51348439      0.25685842
       8.4000000  1.7076936E-003 -8.0369992E-003      0.53424204      0.53277265      0.27580038
       8.7000000  2.4130110E-003 -8.2472661E-003      0.55371839      0.55209077      0.29481058
       9.0000000  3.0922987E-003 -8.4453654E-003      0.57323271      0.57143987      0.31374014
       9.3000000  3.7268249E-003 -8.6326813E-003      0.59278516      0.59082109      0.33243026
       9.6000000  4.2976475E-003 -8.8108863E-003      0.61237575      0.61023557      0.35071365
       9.9000000  4.7860673E-003 -8.9819087E-003      0.63200433      0.62968447      0.36841625
       10.200000  5.1741045E-003 -9.1478958E-003      0.65167058      0.64916895      0.38535907
       10.500000  5.4449833E-003 -9.3111725E-003      0.67137404      0.66869018      0.40136035
       10.800000  5.5836131E-003 -9.4741966E-003      0.69111409      0.68824933      0.41623784
       11.100000  5.5770524E-003 -9.6395115E-003      0.71089000      0.70784760      0.42981129
       11.400000  5.4149392E-003 -9.8096971E-003      0.73070096      0.72748617      0.44190507
       11.700000  5.0898746E-003 -9.9873196E-003      0.75054606      0.74716625      0.45235089
       12.000000  4.5977442E-003    -0.010174881      0.77042434      0.76688906      0.46099059
       12.300000  3.9379669E-003    -0.010374773      0.79033484      0.78665581      0.46767898
       12.600000  3.1136577E-003    -0.010589225      0.81027660      0.80646776      0.47228657
       12.900000  2.1316997E-003    -0.010820267      0.83024872      0.82632613      0.47470234
       13.200000  1.0027185E-003    -0.011069684      0.85025041      0.84623219      0.47483631
       13.500000 -2.5904141E-004    -0.011338986      0.87028099      0.86618720      0.47262190
       13.800000 -1.6359357E-003    -0.011629376      0.89033999      0.88619245      0.46801811
       14.100000 -3.1072298E-003    -0.011941730      0.91042712      0.90624921      0.46101135
       14.400000 -4.6494887E-003    -0.012276576      0.93054240      0.92635881      0.45161694
       14.700000 -6.2370376E-003    -0.012634093      0.95068611      0.94652255      0.43988022
       15.000000 -7.8424776E-003    -0.013014102      0.97085889      0.96674175      0.42587713
       15.300000 -9.4372437E-003    -0.013416075      0.99106173      0.98701778      0.40971436
       15.600000    -0.010992189    -0.013839148       1.0112960       1.0073520      0.39152901
       15.900000    -0.012478178    -0.014282142       1.0315637       1.0277457      0.37148756
       16.200000    -0.013866685    -0.014743583       1.0518668       1.0482004      0.34978446
       16.500000    -0.015130366    -0.015221740       1.0722082       1.0687174      0.32663995
       16.800000    -0.016243619    -0.015714660       1.0925910       1.0892981      0.30229754
       17.100000    -0.017183097    -0.016220202       1.1130188       1.1099440      0.27702073
       17.400000    -0.017928194    -0.016736090       1.1334955       1.1306565      0.25108943
       17.700000    -0.018461476    -0.017259951       1.1540255       1.1514371      0.22479578
       18.000000    -0.018769075    -0.017789362       1.1746136       1.1722873      0.19843966
       18.300000    -0.018841023    -0.018321903       1.1952647       1.1932085      0.17232378
       18.600000    -0.018671544    -0.018855194       1.2159842       1.2142024      0.14674861
       18.900000    -0.018259295    -0.019386945       1.2367774       1.2352703      0.12200705
       19.200000    -0.017607545    -0.019914997       1.2576500       1.2564139     0.098379101
       19.500000    -0.016724307    -0.020437360       1.2786074       1.2776348     0.076126453
       19.800000    -0.015622402    -0.020952246       1.2996552       1.2989345     0.055487274
       20.100000    -0.014319458    -0.021458104       1.3207988       1.3203146     0.036671169
       20.400000    -0.012837823    -0.021953642       1.3420433       1.3417769     0.019854473
       20.700000    -0.011204398    -0.022437848       1.3633935       1.3633229  5.1759740E-003
       21.000000 -9.4503562E-003    -0.022910004       1.3848537       1.3849543 -7.2668272E-003
       21.300000 -7.6107447E-003    -0.023369696       1.4064278       1.4066729    -0.017420813
       21.600000 -5.7239529E-003    -0.023816813       1.4281192       1.4284803    -0.025279592
       21.900000 -3.8310290E-003    -0.024251547       1.4499303       1.4503783    -0.030884990
       22.200000 -1.9748348E-003    -0.024674377       1.4718633       1.4723687    -0.034327574
       22.500000 -1.9903444E-004    -0.025086052       1.4939191       1.4944533    -0.035746125
       22.800000  1.4530851E-003    -0.025487567       1.5160981       1.5166338    -0.035325959
       23.100000  2.9399484E-003    -0.025880131       1.5383999       1.5389123    -0.033296017
       23.400000  4.2231619E-003    -0.026265125       1.5608232       1.5612904    -0.029924659
       23.700000  5.2690837E-003    -0.026644058       1.5833662       1.5837703    -0.025514109
       24.000000  6.0504474E-003    -0.027018517       1.6060260       1.6063536    -0.020393528
       24.300000  6.5479804E-003    -0.027390105       1.6287997       1.6290426    -0.014910728
       24.600000  6.7519487E-003    -0.027760378       1.6516834       1.6518390 -9.4225682E-003
       24.900000  6.6635520E-003    -0.028130780       1.6746733       1.6747450 -4.2841241E-003
       25.200000  6.2960930E-003    -0.028502564       1.6977655       1.6977627  1.6320844E-004
       25.500000  5.6758458E-003    -0.028876724       1.7209561       1.7208940  3.6044745E-003
       25.800000  4.8425523E-003    -0.029253910       1.7442417       1.7441412  5.7644964E-003
       26.100000  3.8494876E-003    -0.029634358       1.7676198       1.7675063  6.4214277E-003
       26.400000  2.7630378E-003    -0.030017810       1.7910888       1.7909917  5.4200793E-003
       26.700000  1.6617409E-003    -0.030403446       1.8146481       1.8145994  2.6844866E-003
       27.000000  6.3473015E-004    -0.030789827       1.8382993       1.8383318 -1.7709127E-003
       27.300000 -2.2049658E-004    -0.031174843       1.8620453       1.8621912 -7.8322199E-003
       27.600000 -8.0109952E-004    -0.031555696       1.8858917       1.8861799    -0.015279986
       27.900000 -1.0028899E-003    -0.031928912       1.9098459       1.9103003    -0.023787063
       28.200000 -7.2555453E-004    -0.032290394       1.9339179       1.9345547    -0.032921531
       28.500000  1.2052384E-004    -0.032635551       1.9581200       1.9589458    -0.042155976
       28.800000  1.6053816E-003    -0.032959519       1.9824667       1.9834759    -0.050884584
       29.100000  3.7679794E-003    -0.033257505       2.0069740       2.0081477    -0.058449654
       29.400000  6.6015757E-003    -0.033525304       2.0316590       2.0329637    -0.064179127
       29.700000     0.010035699    -0.033760053       2.0565388       2.0579266    -0.067436497
       30.000000     0.013915153    -0.033961264       2.0816291       2.0830390    -0.067683566

Table series: Data for wavelength : 0.656273 µm.
   Y Angle (deg)       Tan Shift       Sag Shift     Real Height     Ref. Height      Distortion
  --------------  --------------  --------------  --------------  --------------  --------------
      0.00000000  3.7145253E-003  3.7145253E-003      0.00000000      0.00000000      0.00000000
      0.30000000  3.6888654E-003  3.6971523E-003     0.018896433     0.018896382  2.7113537E-004
      0.60000000  3.6128627E-003  3.6452196E-003     0.037794210     0.037793800  1.0872064E-003
      0.90000000  3.4890640E-003  3.5592833E-003     0.056694682     0.056693290  2.4561220E-003
       1.2000000  3.3216265E-003  3.4402605E-003     0.075599209     0.075595890  4.3908195E-003
       1.5000000  3.1162158E-003  3.2894158E-003     0.094509166     0.094502636  6.9088983E-003
       1.8000000  2.8798660E-003  3.1083412E-003      0.11342595      0.11341457     0.010032115
       2.1000000  2.6208060E-003  2.8989326E-003      0.13235097      0.13233273     0.013785748
       2.4000000  2.3482540E-003  2.6633600E-003      0.15128567      0.15125815     0.018197836
       2.7000000  2.0721867E-003  2.4040345E-003      0.17023153      0.17019188     0.023298309
       3.0000000  1.8030862E-003  2.1235717E-003      0.18919004      0.18913496     0.029118013
       3.3000000  1.5516705E-003  1.8247513E-003      0.20816271      0.20808845     0.035687658
       3.6000000  1.3286125E-003  1.5104747E-003      0.22715109      0.22705338     0.043036689
       3.9000000  1.1442559E-003  1.1837205E-003      0.24615676      0.24603081     0.051192106
       4.2000000  1.0083287E-003  8.4749916E-004      0.26518127      0.26502179     0.060177257
       4.5000000  9.2966514E-004  5.0480650E-004      0.28422623      0.28402738     0.070010607
       4.8000000  9.1593920E-004  1.5857828E-004      0.30329322      0.30304865     0.080704519
       5.1000000  9.7341536E-004 -1.8835492E-004      0.32238381      0.32208664     0.092264064
       5.4000000  1.1067231E-003 -5.3331082E-004      0.34149957      0.34114244      0.10468588
       5.7000000  1.3186597E-003 -8.7379641E-004      0.36064202      0.36021711      0.11795708
       6.0000000  1.6100266E-003 -1.2075459E-003      0.37981263      0.37931173      0.13205431
       6.3000000  1.9795037E-003 -1.5325549E-003      0.39901284      0.39842738      0.14694287
       6.6000000  2.4235667E-003 -1.8471108E-003      0.41824400      0.41756514      0.16257594
       6.9000000  2.9364510E-003 -2.1498180E-003      0.43750738      0.43672611      0.17889409
       7.2000000  3.5101651E-003 -2.4396185E-003      0.45680416      0.45591137      0.19582482
       7.5000000  4.1345571E-003 -2.7158064E-003      0.47613538      0.47512203      0.21328237
       7.8000000  4.7974361E-003 -2.9780371E-003      0.49550199      0.49435919      0.23116773
       8.1000000  5.4847472E-003 -3.2263302E-003      0.51490478      0.51362397      0.24936884
       8.4000000  6.1808114E-003 -3.4610662E-003      0.53434442      0.53291748      0.26776108
       8.7000000  6.8685971E-003 -3.6829771E-003      0.55382140      0.55224085      0.28620791
       9.0000000  7.5300718E-003 -3.8931310E-003      0.57333607      0.57159520      0.30456188
       9.3000000  8.1465782E-003 -4.0929103E-003      0.59288859      0.59098169      0.32266572
       9.6000000  8.6992585E-003 -4.2839847E-003      0.61247898      0.61040145      0.34035387
       9.9000000  9.1695082E-003 -4.4682790E-003      0.63210708      0.62985564      0.35745408
       10.200000  9.5394516E-003 -4.6479353E-003      0.65177260      0.64934542      0.37378932
       10.500000  9.7924253E-003 -4.8252725E-003      0.67147506      0.66887195      0.38917988
       10.800000  9.9134591E-003 -5.0027408E-003      0.69121389      0.68843642      0.40344570
       11.100000  9.8897371E-003 -5.1828748E-003      0.71098835      0.70804001      0.41640880
       11.400000  9.7110271E-003 -5.3682439E-003      0.73079765      0.72768392      0.42789589
       11.700000  9.3700610E-003 -5.5614026E-003      0.75064089      0.74736935      0.43774109
       12.000000  8.8628551E-003 -5.7648406E-003      0.77051715      0.76709752      0.44578869
       12.300000  8.1889551E-003 -5.9809336E-003      0.79042548      0.78686965      0.45189595
       12.600000  7.3515976E-003 -6.2118976E-003      0.81036495      0.80668698      0.45593586
       12.900000  6.3577788E-003 -6.4597444E-003      0.83033470      0.82655075      0.45779979
       13.200000  5.2182275E-003 -6.7262429E-003      0.85033394      0.84646222      0.45740012
       13.500000  3.9472794E-003 -7.0128846E-003      0.87036204      0.86642266      0.45467253
       13.800000  2.5626564E-003 -7.3208543E-003      0.89041855      0.88643334      0.44957813
       14.100000  1.0851566E-003 -7.6510082E-003      0.91050322      0.90649556      0.44210532
       14.400000 -4.6173706E-004 -8.0038576E-003      0.93061609      0.92661062      0.43227121
       14.700000 -2.0523163E-003 -8.3795608E-003      0.95075747      0.94677984      0.42012266
       15.000000 -3.6591639E-003 -8.7779216E-003      0.97092804      0.96700454      0.40573695
       15.300000 -5.2537103E-003 -9.1983949E-003      0.99112881      0.98728608      0.38922182
       15.600000 -6.8068166E-003 -9.6401007E-003       1.0113612       1.0076258      0.37071510
       15.900000 -8.2893688E-003    -0.010101843       1.0316271       1.0280251      0.35038373
       16.200000 -9.6728696E-003    -0.010582135       1.0519288       1.0484853      0.32842223
       16.500000    -0.010930015    -0.011079234       1.0722689       1.0690079      0.30505066
       16.800000    -0.012035247    -0.011591174       1.0926506       1.0895942      0.28051194
       17.100000    -0.012965271    -0.012115807       1.1130776       1.1102457      0.25506872
       17.400000    -0.013699533    -0.012650848       1.1335538       1.1309639      0.22899968
       17.700000    -0.014220658    -0.013193919       1.1540835       1.1517501      0.20259549
       18.000000    -0.014514832    -0.013742593       1.1746716       1.1726060      0.17615424
       18.300000    -0.014572144    -0.014294448       1.1953229       1.1935329      0.14997665
       18.600000    -0.014386873    -0.014847103       1.2160428       1.2145324      0.12436097
       18.900000    -0.013957726    -0.015398271       1.2368367       1.2356061     0.099597765
       19.200000    -0.013288017    -0.015945795       1.2577101       1.2567555     0.075964553
       19.500000    -0.012385799    -0.016487690       1.2786686       1.2779821     0.053720528
       19.800000    -0.011263927    -0.017022174       1.2997177       1.2992876     0.033101358
       20.100000 -9.9400473E-003    -0.017547702       1.3208626       1.3206735     0.014314223
       20.400000 -8.4365218E-003    -0.018062990       1.3421085       1.3421416 -2.4668301E-003
       20.700000 -6.7802467E-003    -0.018567034       1.3634602       1.3636935    -0.017105105
       21.000000 -5.0023749E-003    -0.019059126       1.3849220       1.3853308    -0.029504931
       21.300000 -3.1379151E-003    -0.019538860       1.4064978       1.4070552    -0.039614703
       21.600000 -1.2251957E-003    -0.020006136       1.4281909       1.4288686    -0.047429166
       21.900000  6.9482091E-004    -0.020461151       1.4500038       1.4507726    -0.052990859
       22.200000  2.5793860E-003    -0.020904393       1.4719384       1.4727689    -0.056390597
       22.500000  4.3849785E-003    -0.021336618       1.4939960       1.4948595    -0.057766909
       22.800000  6.0684865E-003    -0.021758825       1.5161768       1.5170461    -0.057304339
       23.100000  7.5885434E-003    -0.022172225       1.5384804       1.5393306    -0.055230522
       23.400000  8.9069991E-003    -0.022578199       1.5609057       1.5617149    -0.051811990
       23.700000  9.9904909E-003    -0.022978255       1.5834507       1.5842008    -0.047348629
       24.000000     0.010812067    -0.023373972       1.6061128       1.6067903    -0.042166798
       24.300000     0.011352806    -0.023766943       1.6288888       1.6294854    -0.036611091
       24.600000     0.011603360    -0.024158711       1.6517753       1.6522880    -0.031034814
       24.900000     0.011565352    -0.024550700       1.6747683       1.6752003    -0.025789246
       25.200000     0.011252546    -0.024944140       1.6978640       1.6982242    -0.021211851
       25.500000     0.010691721    -0.025339996       1.7210586       1.7213618    -0.017613647
       25.800000  9.9231690E-003    -0.025738882       1.7443490       1.7446153    -0.015266010
       26.100000  9.0007732E-003    -0.026140993       1.7677324       1.7679868    -0.014387262
       26.400000  7.9915965E-003    -0.026546022       1.7912075       1.7914785    -0.015129494
       26.700000  6.9749400E-003    -0.026953095       1.8147738       1.8150927    -0.017566140
       27.000000  6.0408102E-003    -0.027360708       1.8384329       1.8388315    -0.021680916
       27.300000  5.2877198E-003    -0.027766681       1.8621878       1.8626974    -0.027358848
       27.600000  4.8197070E-003    -0.028168136       1.8860440       1.8866926    -0.034380218
       27.900000  4.7423987E-003    -0.028561505       1.9100090       1.9108195    -0.042418370
       28.200000  5.1578620E-003    -0.028942586       1.9340929       1.9350806    -0.051042489
       28.500000  6.1578866E-003    -0.029306664       1.9583080       1.9594783    -0.059726593
       28.800000  7.8152373E-003    -0.029648727       1.9826686       1.9840151    -0.067866144
       29.100000     0.010172345    -0.029963801       2.0071910       2.0086936    -0.074803834
       29.400000     0.013226926    -0.030247457       2.0318922       2.0335163    -0.079866066
       29.700000     0.016914262    -0.030496540       2.0567895       2.0584860    -0.082411433
       30.000000     0.021086595    -0.030710180       2.0818989       2.0836052    -0.081891571
