Results for:	
File:	C:\Users\User\OneDrive - Massachusetts Institute of Technology\Documents\MIT\Grad School\Classes\2.156\Lens Project\Prime Lenses\US003515462_Example01P.zmx
Title:	US 3,515,462 Example 1 (Ricoh smc Pentax 17mm F4 Fish-Eye)
Date:	11/7/2025 5:35:15 PM

0 message(s) in output.
3 series table(s) in output.

Table series: Data for wavelength : 0.486133 µm.
   Y Angle (deg)       Tan Shift       Sag Shift     Real Height     Ref. Height      Distortion
  --------------  --------------  --------------  --------------  --------------  --------------
      0.00000000    -0.048572892    -0.048572892      0.00000000      0.00000000      0.00000000
      0.89000000    -0.048489901    -0.048597510      0.26068054      0.26070341 -8.7738127E-003
       1.7800000    -0.048224840    -0.048671142      0.52134964      0.52153268    -0.035097099
       2.6700000    -0.047777279    -0.048793126      0.78199584      0.78261392    -0.078975911
       3.5600000    -0.047146512    -0.048962353       1.0426076       1.0440737     -0.14042024
       4.4500000    -0.046331560    -0.049177279       1.3031733       1.3060394     -0.21944408
       5.3400000    -0.045331173    -0.049435915       1.5636813       1.5686392     -0.31606539
       6.2300000    -0.044143844    -0.049735836       1.8241196       1.8320028     -0.43030611
       7.1200000    -0.042767804    -0.050074181       2.0844761       2.0962611     -0.56219214
       8.0100000    -0.041201041    -0.050447655       2.3447386       2.3615470     -0.71175331
       8.9000000    -0.039441304    -0.050852531       2.6048946       2.6279953     -0.87902337
       9.7900000    -0.037486115    -0.051284656       2.8649312       2.8957430      -1.0640400
       10.680000    -0.035332782    -0.051739451       3.1248353       3.1649301      -1.2668447
       11.570000    -0.032978411    -0.052211921       3.3845936       3.4356991      -1.4874828
       12.460000    -0.030419924    -0.052696653       3.6441922       3.7081958      -1.7260036
       13.350000    -0.027654074    -0.053187826       3.9036168       3.9825697      -1.9824600
       14.240000    -0.024677464    -0.053679218       4.1628529       4.2589740      -2.2569087
       15.130000    -0.021486566    -0.054164209       4.4218853       4.5375664      -2.5494102
       16.020000    -0.018077741    -0.054635792       4.6806983       4.8185091      -2.8600284
       16.910000    -0.014447267    -0.055086581       4.9392760       5.1019691      -3.1888312
       17.800000    -0.010591358    -0.055508819       5.1976014       5.3881193      -3.5358896
       18.690000 -6.5061953E-003    -0.055894388       5.4556573       5.6771383      -3.9012783
       19.580000 -2.1879512E-003    -0.056234826       5.7134257       5.9692109      -4.2850756
       20.470000  2.3671770E-003    -0.056521330       5.9708881       6.2645293      -4.6873628
       21.360000  7.1629371E-003    -0.056744779       6.2280249       6.5632926      -5.1082248
       22.250000     0.012202987    -0.056895746       6.4848161       6.8657084      -5.5477494
       23.140000     0.017490860    -0.056964512       6.7412409       7.1719928      -6.0060276
       24.030000     0.023029926    -0.056941088       6.9972775       7.4823711      -6.4831537
       24.920000     0.028823350    -0.056815233       7.2529032       7.7970789      -6.9792244
       25.810000     0.034874054    -0.056576477       7.5080948       8.1163625      -7.4943396
       26.700000     0.041184667    -0.056214142       7.7628276       8.4404801      -8.0286017
       27.590000     0.047757485    -0.055717371       8.0170764       8.7697024      -8.5821156
       28.480000     0.054594417    -0.055075158       8.2708147       9.1043135      -9.1549888
       29.370000     0.061696936    -0.054276369       8.5240149       9.4446126      -9.7473310
       30.260000     0.069066026    -0.053309786       8.7766487       9.7909143      -10.359254
       31.150000     0.076702126    -0.052164134       9.0286861       10.143551      -10.990871
       32.040000     0.084605075    -0.050828127       9.2800963       10.502872      -11.642299
       32.930000     0.092774046    -0.049290505       9.5308472       10.869249      -12.313653
       33.820000      0.10120749    -0.047540078       9.7809054       11.243073      -13.005053
       34.710000      0.10990307    -0.045565779       10.030236       11.624760      -13.716618
       35.600000      0.11885759    -0.043356715       10.278803       12.014751      -14.448470
       36.490000      0.12806694    -0.040902218       10.526570       12.413514      -15.200728
       37.380000      0.13752600    -0.038191913       10.773496       12.821548      -15.973516
       38.270000      0.14722861    -0.035215777       11.019543       13.239384      -16.766955
       39.160000      0.15716745    -0.031964209       11.264667       13.667589      -17.581167
       40.050000      0.16733398    -0.028428107       11.508826       14.106767      -18.416274
       40.940000      0.17771840    -0.024598942       11.751975       14.557567      -19.272397
       41.830000      0.18830951    -0.020468845       11.994067       15.020683      -20.149655
       42.720000      0.19909469    -0.016030697       12.235054       15.496858      -21.048168
       43.610000      0.21005978    -0.011278220       12.474885       15.986894      -21.968051
       44.500000      0.22118902 -6.2060813E-003       12.713510       16.491652      -22.909421
       45.390000      0.23246497 -8.0999851E-004       12.950874       17.012059      -23.872389
       46.280000      0.24386844  4.9131489E-003       13.186924       17.549120      -24.857065
       47.170000      0.25537839     0.010965200       13.421600       18.103917      -25.863555
       48.060000      0.26697187     0.017346590       13.654846       18.677626      -26.891961
       48.950000      0.27862397     0.024056217       13.886600       19.271522      -27.942382
       49.840000      0.29030768     0.031091307       14.116799       19.886992      -29.014911
       50.730000      0.30199391     0.038447272       14.345380       20.525548      -30.109636
       51.620000      0.31365137     0.046117561       14.572276       21.188838      -31.226640
       52.510000      0.32524650     0.054093505       14.797419       21.878669      -32.365999
       53.400000      0.33674347     0.062364160       15.020739       22.597018      -33.527783
       54.290000      0.34810409     0.070916142       15.242164       23.346062      -34.712055
       55.180000      0.35928775     0.079733458       15.461621       24.128196      -35.918868
       56.070000      0.37025145     0.088797334       15.679034       24.946066      -37.148269
       56.960000      0.38094969     0.098086041       15.894326       25.802600      -38.400295
       57.850000      0.39133449      0.10757472       16.107417       26.701053      -39.674972
       58.740000      0.40135541      0.11723519       16.318228       27.645044      -40.972319
       59.630000      0.41095945      0.12703580       16.526676       28.638618      -42.292340
       60.520000      0.42009114      0.13694120       16.732677       29.686306      -43.635032
       61.410000      0.42869254      0.14691224       16.936144       30.793201      -45.000377
       62.300000      0.43670320      0.15690572       17.136993       31.965051      -46.388345
       63.190000      0.44406029      0.16687428       17.335133       33.208363      -47.798893
       64.080000      0.45069854      0.17676622       17.530476       34.530539      -49.231965
       64.970000      0.45655038      0.18652537       17.722931       35.940030      -50.687490
       65.860000      0.46154595      0.19609094       17.912406       37.446532      -52.165382
       66.750000      0.46561318      0.20539740       18.098807       39.061225      -53.665541
       67.640000      0.46867786      0.21437439       18.282043       40.797067      -55.187849
       68.530000      0.47066374      0.22294663       18.462018       42.669161      -56.732175
       69.420000      0.47149262      0.23103385       18.638638       44.695224      -58.298368
       70.310000      0.47108442      0.23855079       18.811807       46.896172      -59.886263
       71.200000      0.46935731      0.24540713       18.981430       49.296880      -61.495677
       72.090000      0.46622777      0.25150759       19.147411       51.927166      -63.126408
       72.980000      0.46161074      0.25675191       19.309656       54.823084      -64.778239
       73.870000      0.45541966      0.26103502       19.468068       58.028642      -66.450933
       74.760000      0.44756661      0.26424710       19.622553       61.598124      -68.144236
       75.650000      0.43796239      0.26627380       19.773016       65.599283      -69.857877
       76.540000      0.42651656      0.26699645       19.919365       70.117786      -71.591566
       77.430000      0.41313757      0.26629231       20.061504       75.263560      -73.344997
       78.320000      0.39773279      0.26403489       20.199344       81.180035      -75.117843
       79.210000      0.38020852      0.26009429       20.332793       88.057961      -76.909762
       80.100000      0.36047010      0.25433764       20.461760       96.156678      -78.720396
       80.990000      0.33842188      0.24662951       20.586158       105.83799      -80.549368
       81.880000      0.31396720      0.23683245       20.705899       117.62232      -82.396284
       82.770000      0.28700846      0.22480753       20.820898       132.28634      -84.260735
       83.660000      0.25744700      0.21041495       20.931069       151.04285      -86.142297
       84.550000      0.22518316      0.19351466       21.036329       175.89680      -88.040528
       85.440000      0.19011620      0.17396710       21.136597       210.41848      -89.954971
       86.330000      0.15214424      0.15163386       21.231792       261.64140      -91.885156
       87.220000      0.11116433      0.12637853       21.321835       345.60598      -93.830594
       88.110000     0.067072325     0.098067450       21.406647       508.56641      -95.790786
       89.000000     0.019763005     0.066570568       21.486151       961.44167      -97.765215

Table series: Data for wavelength : 0.587562 µm.
   Y Angle (deg)       Tan Shift       Sag Shift     Real Height     Ref. Height      Distortion
  --------------  --------------  --------------  --------------  --------------  --------------
      0.00000000     0.021535816     0.021535816      0.00000000      0.00000000      0.00000000
      0.89000000     0.021618883     0.021510879      0.26110507      0.26112800 -8.7830700E-003
       1.7800000     0.021886366     0.021436290      0.52219853      0.52238207    -0.035134283
       2.6700000     0.022338748     0.021312721      0.78326877      0.78388851    -0.079059637
       3.5600000     0.022976820     0.021141287       1.0443041       1.0457741     -0.14056913
       4.4500000     0.023801681     0.020923552       1.3052927       1.3081664     -0.21967675
       5.3400000     0.024814731     0.020661520       1.5662227       1.5711939     -0.31640045
       6.2300000     0.026017671     0.020357642       1.8270820       1.8349864     -0.43076219
       7.1200000     0.027412492     0.020014806       2.0878584       2.0996751     -0.56278784
       8.0100000     0.029001470     0.019636341       2.3485395       2.3653931     -0.71250725
       8.9000000     0.030787154     0.019226008       2.6091125       2.6322753     -0.87995416
       9.7900000     0.032772364     0.018788004       2.8695644       2.9004591      -1.0651662
       10.680000     0.034960169     0.018326950       3.1298821       3.1700846      -1.2681850
       11.570000     0.037353884     0.017847895       3.3900517       3.4412945      -1.4890557
       12.460000     0.039957054     0.017356303       3.6500595       3.7142350      -1.7278277
       13.350000     0.042773433     0.016858055       3.9098908       3.9890558      -1.9845539
       14.240000     0.045806979     0.016359437       4.1695310       4.2659103      -2.2592909
       15.130000     0.049061824     0.015867135       4.4289647       4.5449565      -2.5520992
       16.020000     0.052542265     0.015388230       4.6881760       4.8263566      -2.8630428
       16.910000     0.056252738     0.014930185       4.9471486       5.1102783      -3.1921892
       17.800000     0.060197797     0.014500838       5.2058656       5.3968946      -3.5396097
       18.690000     0.064382090     0.014108393       5.4643094       5.6863842      -3.9053789
       19.580000     0.068810335     0.013761404       5.7224618       5.9789326      -4.2895749
       20.470000     0.073487294     0.013468767       5.9803039       6.2747319      -4.6922791
       21.360000     0.078417740     0.013239706       6.2378162       6.5739818      -5.1135760
       22.250000     0.083606432     0.013083752       6.4949783       6.8768901      -5.5535537
       23.140000     0.089058079     0.013010734       6.7517691       7.1836733      -6.0123029
       24.030000     0.094777309     0.013030755       7.0081665       7.4945571      -6.4899175
       24.920000      0.10076863     0.013154175       7.2641477       7.8097774      -6.9864945
       25.810000      0.10703640     0.013391590       7.5196891       8.1295811      -7.5021334
       26.700000      0.11358477     0.013753804       7.7747657       8.4542265      -8.0369363
       27.590000      0.12041767     0.014251810       8.0293521       8.7839850      -8.5910081
       28.480000      0.12753874     0.014896751       8.2834214       9.1191411      -9.1644559
       29.370000      0.13495130     0.015699903       8.5369459       9.4599943      -9.7573892
       30.260000      0.14265828     0.016672634       8.7898966       9.8068601      -10.369919
       31.150000      0.15066221     0.017826369       9.0422436       10.160071      -11.002160
       32.040000      0.15896514     0.019172551       9.2939555       10.519977      -11.654225
       32.930000      0.16756858     0.020722603       9.5449998       10.886951      -12.326233
       33.820000      0.17647347     0.022487877       9.7953430       11.261384      -13.018301
       34.710000      0.18568009     0.024479611       10.044950       11.643693      -13.730548
       35.600000      0.19518803     0.026708873       10.293784       12.034319      -14.463095
       36.490000      0.20499613     0.029186504       10.541807       12.433731      -15.216061
       37.380000      0.21510237     0.031923063       10.788981       12.842430      -15.989569
       38.270000      0.22550387     0.034928757       11.035264       13.260946      -16.783739
       39.160000      0.23619677     0.038213371       11.280614       13.689848      -17.598693
       40.050000      0.24717617     0.041786200       11.524987       14.129742      -18.434551
       40.940000      0.25843610     0.045655963       11.768339       14.581276      -19.291433
       41.830000      0.26996939     0.049830724       12.010621       15.045146      -20.169459
       42.720000      0.28176765     0.054317797       12.251786       15.522097      -21.068745
       43.610000      0.29382113     0.059123655       12.491782       16.012931      -21.989407
       44.500000      0.30611873     0.064253830       12.730559       16.518511      -22.931559
       45.390000      0.31864784     0.069712801       12.968061       17.039766      -23.895311
       46.280000      0.33139432     0.075503883       13.204233       17.577701      -24.880772
       47.170000      0.34434239     0.081629111       13.439018       18.133401      -25.888046
       48.060000      0.35747459     0.088089113       13.672357       18.708045      -26.917232
       48.950000      0.37077165     0.094882976       13.904188       19.302908      -27.968429
       49.840000      0.38421246      0.10200811       14.134449       19.919381      -29.041726
       50.730000      0.39777395      0.10946012       14.363074       20.558976      -30.137210
       51.620000      0.41143108      0.11723262       14.589998       21.223347      -31.254962
       52.510000      0.42515668      0.12531711       14.815151       21.914301      -32.395055
       53.400000      0.43892146      0.13370281       15.038464       22.633820      -33.557556
       54.290000      0.45269388      0.14237649       15.259863       23.384084      -34.742524
       55.180000      0.46644010      0.15132230       15.479276       24.167492      -35.950011
       56.070000      0.48012393      0.16052161       15.696626       24.986693      -37.180059
       56.960000      0.49370674      0.16995279       15.911836       25.844623      -38.432703
       57.850000      0.50714741      0.17959111       16.124826       26.744539      -39.707966
       58.740000      0.52040226      0.18940848       16.335517       27.690067      -41.005861
       59.630000      0.53342503      0.19937332       16.543824       28.685259      -42.326392
       60.520000      0.54616676      0.20945036       16.749665       29.734653      -43.669548
       61.410000      0.55857580      0.21960047       16.952953       30.843352      -45.035308
       62.300000      0.57059776      0.22978050       17.153602       32.017110      -46.423640
       63.190000      0.58217540      0.23994308       17.351524       33.262447      -47.834494
       64.080000      0.59324867      0.25003652       17.546629       34.586776      -49.267811
       64.970000      0.60375464      0.26000459       17.738826       35.998563      -50.723515
       65.860000      0.61362743      0.26978646       17.928025       37.507519      -52.201516
       66.750000      0.62279824      0.27931651       18.114133       39.124841      -53.701708
       67.640000      0.63119527      0.28852429       18.297057       40.863510      -55.223971
       68.530000      0.63874371      0.29733437       18.476704       42.738653      -56.768165
       69.420000      0.64536573      0.30566635       18.652979       44.768016      -58.334139
       70.310000      0.65098041      0.31343477       18.825789       46.972548      -59.921721
       71.200000      0.65550378      0.32054910       18.995038       49.377166      -61.530724
       72.090000      0.65884874      0.32691383       19.160633       52.011736      -63.160943
       72.980000      0.66092509      0.33242843       19.322480       54.912371      -64.812155
       73.870000      0.66163948      0.33698753       19.480484       58.123149      -66.484121
       74.760000      0.66089540      0.34048098       19.634553       61.698445      -68.176583
       75.650000      0.65859320      0.34279407       19.784594       65.706120      -69.889267
       76.540000      0.65463004      0.34380773       19.930515       70.231982      -71.621882
       77.430000      0.64889991      0.34339879       20.072225       75.386136      -73.374116
       78.320000      0.64129360      0.34144026       20.209634       81.312247      -75.145645
       79.210000      0.63169875      0.33780174       20.342655       88.201375      -76.936125
       80.100000      0.61999981      0.33234979       20.471198       96.313281      -78.745197
       80.990000      0.60607809      0.32494836       20.595180       106.01036      -80.572484
       81.880000      0.58981179      0.31545933       20.714514       117.81388      -82.417595
       82.770000      0.57107600      0.30374305       20.829118       132.50179      -84.280124
       83.660000      0.54974282      0.28965892       20.938910       151.28884      -86.159647
       84.550000      0.52568139      0.27306603       21.043810       176.18328      -88.055728
       85.440000      0.49875799      0.25382387       21.143738       210.76118      -89.967916
       86.330000      0.46883620      0.23179304       21.238619       262.06751      -91.895745
       87.220000      0.43577706      0.20683600       21.328375       346.16885      -93.838736
       88.110000      0.39943927      0.17881791       21.412931       509.39468      -95.796397
       89.000000      0.35967946      0.14760740       21.492213       963.00750      -97.768220

Table series: Data for wavelength : 0.656273 µm.
   Y Angle (deg)       Tan Shift       Sag Shift     Real Height     Ref. Height      Distortion
  --------------  --------------  --------------  --------------  --------------  --------------
      0.00000000     0.087719517     0.087719517      0.00000000      0.00000000      0.00000000
      0.89000000     0.087802385     0.087694402      0.26140544      0.26142850 -8.8178517E-003
       1.7800000     0.088070275     0.087619283      0.52279924      0.52298320    -0.035175226
       2.6700000     0.088523689     0.087494835      0.78416971      0.78479057    -0.079110856
       3.5600000     0.089163455     0.087322181       1.0455051       1.0469775     -0.14063475
       4.4500000     0.089990721     0.087102892       1.3067937       1.3096718     -0.21976090
       5.3400000     0.091006952     0.086838987       1.5680233       1.5730020     -0.31650730
       6.2300000     0.092213926     0.086532931       1.8291821       1.8370980     -0.43089590
       7.1200000     0.093613728     0.086187631       2.0902576       2.1020913     -0.56295263
       8.0100000     0.095208742     0.085806435       2.3512373       2.3681151     -0.71270733
       8.9000000     0.097001643     0.085393129       2.6121086       2.6353044     -0.88019381
       9.7900000     0.098995388     0.084951935       2.8728584       2.9037969      -1.0654497
       10.680000      0.10119321     0.084487504       3.1334733       3.1737326      -1.2685167
       11.570000      0.10359859     0.084004917       3.3939396       3.4452546      -1.4894400
       12.460000      0.10621527     0.083509673       3.6542434       3.7185092      -1.7282690
       13.350000      0.10904721     0.083007690       3.9143701       3.9936462      -1.9850567
       14.240000      0.11209860     0.082505294       4.1743048       4.2708193      -2.2598597
       15.130000      0.11537382     0.082009215       4.4340322       4.5501866      -2.5527385
       16.020000      0.11887744     0.081526580       4.6935364       4.8319106      -2.8637573
       16.910000      0.12261419     0.081064902       4.9528009       5.1161590      -3.1929836
       17.800000      0.12658893     0.080632069       5.2118088       5.4031051      -3.5404887
       18.690000      0.13080666     0.080236341       5.4705423       5.6929278      -3.9063474
       19.580000      0.13527245     0.079886331       5.7289833       5.9858129      -4.2906377
       20.470000      0.13999147     0.079590995       5.9871128       6.2819525      -4.6934411
       21.360000      0.14496889     0.079359619       6.2449111       6.5815468      -5.1148422
       22.250000      0.15020993     0.079201802       6.5023578       6.8848037      -5.5549291
       23.140000      0.15571977     0.079127442       6.7594316       7.1919399      -6.0137927
       24.030000      0.16150356     0.079146715       7.0161104       7.5031815      -6.4915269
       24.920000      0.16756635     0.079270056       7.2723714       7.8187645      -6.9882286
       25.810000      0.17391307     0.079508139       7.5281907       8.1389362      -7.5039974
       26.700000      0.18054850     0.079871849       7.7835434       8.4639553      -8.0389357
       27.590000      0.18747721     0.080372262       8.0384037       8.7940932      -8.5931482
       28.480000      0.19470356     0.081020610       8.2927449       9.1296350      -9.1667421
       29.370000      0.20223159     0.081828255       8.5465389       9.4708805      -9.7598268
       30.260000      0.21006505     0.082806659       8.7997569       9.8181454      -10.372514
       31.150000      0.21820728     0.083967341       9.0523685       10.171762      -11.004917
       32.040000      0.22666122     0.085321841       9.3043425       10.532083      -11.657150
       32.930000      0.23542933     0.086881681       9.5556461       10.899479      -12.329331
       33.820000      0.24451353     0.088658316       9.8062455       11.274343      -13.021578
       34.710000      0.25391517     0.090663085       10.056106       11.657092      -13.734009
       35.600000      0.26363495     0.092907164       10.305190       12.048167      -14.466745
       36.490000      0.27367287     0.095401502       10.553460       12.448040      -15.219906
       37.380000      0.28402816     0.098156765       10.800876       12.857208      -15.993614
       38.270000      0.29469925      0.10118327       11.047398       13.276207      -16.787989
       39.160000      0.30568365      0.10449092       11.292984       13.705602      -17.603153
       40.050000      0.31697792      0.10808911       11.537589       14.146002      -18.439226
       40.940000      0.32857761      0.11198668       11.781167       14.598056      -19.296328
       41.830000      0.34047715      0.11619181       12.023672       15.062459      -20.174577
       42.720000      0.35266981      0.12071192       12.265054       15.539959      -21.074091
       43.610000      0.36514764      0.12555361       12.505263       16.031358      -21.994985
       44.500000      0.37790133      0.13072250       12.744247       16.537519      -22.937372
       45.390000      0.39092022      0.13622319       12.981951       17.059374      -23.901363
       46.280000      0.40419217      0.14205911       13.218320       17.597928      -24.887065
       47.170000      0.41770348      0.14823238       13.453296       18.154268      -25.894582
       48.060000      0.43143885      0.15474375       13.686820       18.729573      -26.924014
       48.950000      0.44538125      0.16159240       13.918830       19.325121      -27.975457
       49.840000      0.45951188      0.16877583       14.149263       19.942303      -29.049002
       50.730000      0.47381009      0.17628972       14.378054       20.582634      -30.144734
       51.620000      0.48825327      0.18412778       14.605136       21.247770      -31.262732
       52.510000      0.50281679      0.19228158       14.830441       21.939519      -32.403070
       53.400000      0.51747393      0.20074041       15.053898       22.659866      -33.565813
       54.290000      0.53219578      0.20949109       15.275434       23.410993      -34.751021
       55.180000      0.54695115      0.21851783       15.494976       24.195303      -35.958743
       56.070000      0.56170654      0.22780201       15.712447       25.015447      -37.189022
       56.960000      0.57642602      0.23732205       15.927770       25.874364      -38.441889
       57.850000      0.59107116      0.24705322       16.140865       26.775315      -39.717368
       58.740000      0.60560095      0.25696742       16.351651       27.721932      -41.015471
       59.630000      0.61997174      0.26703306       16.560046       28.718269      -42.336198
       60.520000      0.63413715      0.27721482       16.765965       29.768871      -43.679540
       61.410000      0.64804799      0.28747354       16.969323       30.878845      -45.045473
       62.300000      0.66165220      0.29776599       17.170033       32.053954      -46.433962
       63.190000      0.67489476      0.30804470       17.368007       33.300724      -47.844958
       64.080000      0.68771763      0.31825788       17.563154       34.626577      -49.278399
       64.970000      0.70005965      0.32834916       17.755386       36.039988      -50.734208
       65.860000      0.71185651      0.33825754       17.944610       37.550681      -52.212292
       66.750000      0.72304064      0.34791725       18.130734       39.169865      -53.712544
       67.640000      0.73354113      0.35725760       18.313665       40.910534      -55.234842
       68.530000      0.74328370      0.36620295       18.493311       42.787835      -56.779046
       69.420000      0.75219058      0.37467263       18.669576       44.819533      -58.345000
       70.310000      0.76018050      0.38258090       18.842368       47.026602      -59.932533
       71.200000      0.76716854      0.38983694       19.011593       49.433987      -61.541454
       72.090000      0.77306613      0.39634485       19.177155       52.071589      -63.171558
       72.980000      0.77778096      0.40200377       19.338962       54.975561      -64.822619
       73.870000      0.78121691      0.40670792       19.496921       58.190034      -66.494398
       74.760000      0.78327400      0.41034671       19.650938       61.769445      -68.186636
       75.650000      0.78384837      0.41280499       19.800922       65.781732      -69.899056
       76.540000      0.78283217      0.41396319       19.946782       70.312801      -71.631366
       77.430000      0.78011358      0.41369761       20.088426       75.472887      -73.383254
       78.320000      0.77557677      0.41188074       20.225768       81.405818      -75.154395
       79.210000      0.76910187      0.40838157       20.358718       88.302873      -76.944444
       80.100000      0.76056499      0.40306606       20.487190       96.424114      -78.753043
       80.990000      0.74983823      0.39579752       20.611100       106.13235      -80.579814
       81.880000      0.73678972      0.38643715       20.730364       117.94946      -82.424367
       82.770000      0.72128367      0.37484458       20.844899       132.65427      -84.286296
       83.660000      0.70318047      0.36087849       20.954626       151.46294      -86.165179
       84.550000      0.68233680      0.34439719       21.059465       176.38602      -88.060582
       85.440000      0.65860578      0.32525937       21.159338       211.00371      -89.972054
       86.330000      0.63183717      0.30332479       21.254170       262.36909      -91.899133
       87.220000      0.60187760      0.27845503       21.343885       346.56720      -93.841343
       88.110000      0.56857091      0.25051435       21.428409       509.98087      -95.798194
       89.000000      0.53175843      0.21937046       21.507670       964.11569      -97.769182
