Results for:	
File:	C:\Users\User\OneDrive - Massachusetts Institute of Technology\Documents\MIT\Grad School\Classes\2.156\Lens Project\Prime Lenses\DE02818394_Example01P.zmx
Title:	DE 2818394 Example 1 (Rodenstock Geronar 210mm f6.8)
Date:	11/7/2025 5:22:54 PM

0 message(s) in output.
3 series table(s) in output.

Table series: Data for wavelength : 0.486133 µm.
   Y Angle (deg)       Tan Shift       Sag Shift     Real Height     Ref. Height      Distortion
  --------------  --------------  --------------  --------------  --------------  --------------
      0.00000000     -0.20574241     -0.20574241      0.00000000      0.00000000      0.00000000
      0.26513119     -0.20581929     -0.20614426      0.97263726      0.97263687  4.0425982E-005
      0.53026238     -0.20602339     -0.20734932       1.9453180       1.9453154  1.3498386E-004
      0.79539357     -0.20635188     -0.20935617       2.9180858       2.9180772  2.9245400E-004
       1.0605248     -0.20680001     -0.21216243       3.8909840       3.8909641  5.1264687E-004
       1.3256560     -0.20736104     -0.21576478       4.8640563       4.8640176  7.9530068E-004
       1.5907871     -0.20802626     -0.22015891       5.8373461       5.8372795  1.1400671E-003
       1.8559183     -0.20878501     -0.22533958       6.8108970       6.8107917  1.5465325E-003
       2.1210495     -0.20962462     -0.23130058       7.7847526       7.7845958  2.0142037E-003
       2.3861807     -0.21053045     -0.23803470       8.7589564       8.7587337  2.5425117E-003
       2.6513119     -0.21148586     -0.24553379       9.7335522       9.7332475  3.1308112E-003
       2.9164431     -0.21247219     -0.25378868       10.708584       10.708179  3.7783810E-003
       3.1815743     -0.21346877     -0.26278921       11.684094       11.683570  4.4844233E-003
       3.4467055     -0.21445290     -0.27252425       12.660128       12.659463  5.2480646E-003
       3.7118367     -0.21539982     -0.28298159       13.636728       13.635901  6.0683547E-003
       3.9769679     -0.21628271     -0.29414805       14.613939       14.612924  6.9442673E-003
       4.2420991     -0.21707267     -0.30600937       15.591805       15.590577  7.8746995E-003
       4.5072302     -0.21773873     -0.31855025       16.570369       16.568901  8.8584725E-003
       4.7723614     -0.21824778     -0.33175434       17.549675       17.547939  9.8943306E-003
       5.0374926     -0.21856458     -0.34560416       18.529768       18.527733     0.010980942
       5.3026238     -0.21865177     -0.36008115       19.510692       19.508328     0.012116900
       5.5677550     -0.21846978     -0.37516565       20.492490       20.489765     0.013300719
       5.8328862     -0.21797689     -0.39083683       21.475208       21.472088     0.014530840
       6.0980174     -0.21712916     -0.40707271       22.458889       22.455340     0.015805628
       6.3631486     -0.21588042     -0.42385012       23.443578       23.439564     0.017123372
       6.6282798     -0.21418226     -0.44114470       24.429319       24.424805     0.018482286
       6.8934110     -0.21198402     -0.45893085       25.416158       25.411106     0.019880510
       7.1585422     -0.20923272     -0.47718171       26.404139       26.398512     0.021316110
       7.4236733     -0.20587314     -0.49586916       27.393306       27.387065     0.022787077
       7.6888045     -0.20184770     -0.51496375       28.383705       28.376812     0.024291334
       7.9539357     -0.19709652     -0.53443469       29.375381       29.367796     0.025826727
       8.2190669     -0.19155737     -0.55424983       30.368378       30.360062     0.027391035
       8.4841981     -0.18516568     -0.57437563       31.362742       31.353656     0.028981968
       8.7493293     -0.17785454     -0.59477708       32.358520       32.348622     0.030597166
       9.0144605     -0.16955466     -0.61541771       33.355755       33.345006     0.032234204
       9.2795917     -0.16019442     -0.63625957       34.354494       34.342855     0.033890593
       9.5447229     -0.14969987     -0.65726312       35.354782       35.342213     0.035563783
       9.8098541     -0.13799471     -0.67838725       36.356666       36.343128     0.037251163
       10.074985     -0.12500033     -0.69958924       37.360192       37.345646     0.038950067
       10.340116     -0.11063588     -0.72082464       38.365405       38.349813     0.040657772
       10.605248    -0.094818221     -0.74204735       39.372354       39.355678     0.042371510
       10.870379    -0.077462062     -0.76320944       40.381083       40.363287     0.044088462
       11.135510    -0.058479964     -0.78426119       41.391640       41.372689     0.045805773
       11.400641    -0.037782444     -0.80515102       42.404072       42.383931     0.047520546
       11.665772    -0.015278047     -0.82582540       43.418427       43.397062     0.049229856
       11.930904  9.1265316E-003     -0.84622884       44.434751       44.412131     0.050930755
       12.196035     0.035526325     -0.86630380       45.453092       45.429187     0.052620274
       12.461166     0.064017943     -0.88599065       46.473499       46.448279     0.054295436
       12.726297     0.094699390     -0.90522758       47.496019       47.469458     0.055953264
       12.991428      0.12766986     -0.92395059       48.520701       48.492773     0.057590787
       13.256560      0.16302950     -0.94209335       49.547593       49.518276     0.059205055
       13.521691      0.20087912     -0.95958718       50.576745       50.546017     0.060793148
       13.786822      0.24131989     -0.97636097       51.608207       51.576048     0.062352192
       14.051953      0.28445293     -0.99234109       52.642026       52.608420     0.063879371
       14.317084      0.33037894      -1.0074513       53.678255       53.643187     0.065371943
       14.582216      0.37919767      -1.0216128       54.716943       54.680401     0.066827261
       14.847347      0.43100736      -1.0347439       55.758140       55.720115     0.068242789
       15.112478      0.48590414      -1.0467601       56.801899       56.762384     0.069616129
       15.377609      0.54398122      -1.0575741       57.848271       57.807260     0.070945039
       15.642740      0.60532816      -1.0670954       58.897309       58.854799     0.072227466
       15.907871      0.67002982      -1.0752306       59.949064       59.905057     0.073461574
       16.173003      0.73816532      -1.0818830       61.003591       60.958088     0.074645774
       16.438134      0.80980682      -1.0869525       62.060943       62.013950     0.075778767
       16.703265      0.88501805      -1.0903359       63.121176       63.072699     0.076859579
       16.968396      0.96385275      -1.0919262       64.184344       64.134392     0.077887612
       17.233527       1.0463528      -1.0916130       65.250505       65.199087     0.078862688
       17.498659       1.1325462      -1.0892822       66.319715       66.266843     0.079785111
       17.763790       1.2224446      -1.0848159       67.392032       67.337720     0.080655725
       18.028921       1.3160407      -1.0780923       68.467515       68.411776     0.081475984
       18.294052       1.4133049      -1.0689856       69.546226       69.489073     0.082248032
       18.559183       1.5141821      -1.0573659       70.628226       70.569670     0.082974783
       18.824315       1.6185873      -1.0430992       71.713577       71.653631     0.083660023
       19.089446       1.7264016      -1.0260473       72.802344       72.741017     0.084308508
       19.354577       1.8374661      -1.0060675       73.894594       73.831892     0.084926093
       19.619708       1.9515764     -0.98301276       74.990395       74.926318     0.085519858
       19.884839       2.0684753     -0.95673168       76.089817       76.024361     0.086098261
       20.149971       2.1878454     -0.92706824       77.192932       77.126086     0.086671304
       20.415102       2.3092992     -0.89386190       78.299816       78.231559     0.087250719
       20.680233       2.4323693     -0.85694759       79.410547       79.340846     0.087850183
       20.945364       2.5564958     -0.81615574       80.525205       80.454015     0.088485555
       21.210495       2.6810126     -0.77131229       81.643876       81.571135     0.089175144
       21.475626       2.8051306     -0.72223881       82.766647       82.692274     0.089940017
       21.740758       2.9279203     -0.66875274       83.893613       83.817503     0.090804336
       22.005889       3.0482890     -0.61066743       85.024870       84.946892     0.091795759
       22.271020       3.1649557     -0.54779255       86.160522       86.080513     0.092945887
       22.536151       3.2764224     -0.47993443       87.300679       87.218440     0.094290767
       22.801282       3.3809394     -0.40689655       88.445457       88.360744     0.095871483
       23.066414       3.4764659     -0.32848018       89.594982       89.507502     0.097734825
       23.331545       3.5606225     -0.24448515       90.749387       90.658788     0.099934062
       23.596676       3.6306372     -0.15471090       91.908817       91.814679      0.10252984
       23.861807       3.6832801    -0.058957680       93.073426       92.975253      0.10559121
       24.126938       3.7147876     0.042971867       94.243386       94.140587      0.10919685
       24.392070       3.7207718      0.15127073       95.418879       95.310762      0.11343649
       24.657201       3.6961139      0.26612514       96.600109       96.485858      0.11841252
       24.922332       3.6348367      0.38771149       97.787299       97.665957      0.12424202
       25.187463       3.5299518      0.51619260       98.980695       98.851142      0.13105906
       25.452594       3.3732779      0.65171300       100.18057       100.04150      0.13901748
       25.717726       3.1552207      0.79439297       101.38723       101.23711      0.14829422
       25.982857       2.8645081      0.94432113       102.60103       102.43806      0.15909341
       26.247988       2.4878680       1.1015450       103.82234       103.64444      0.17165123
       26.513119       2.0096378       1.2660590       105.05162       104.85634      0.18624199

Table series: Data for wavelength : 0.587562 µm.
   Y Angle (deg)       Tan Shift       Sag Shift     Real Height     Ref. Height      Distortion
  --------------  --------------  --------------  --------------  --------------  --------------
      0.00000000  4.7271758E-003  4.7271758E-003      0.00000000      0.00000000      0.00000000
      0.26513119  4.6196267E-003  4.3030465E-003      0.97247867      0.97247835  3.2365960E-005
      0.53026238  4.3129790E-003  3.0311313E-003       1.9450009       1.9449984  1.2942707E-004
      0.79539357  3.8101024E-003  9.1284928E-004       2.9176102       2.9176017  2.9106636E-004
       1.0605248  3.1158665E-003 -2.0494328E-003       3.8903501       3.8903299  5.1708995E-004
       1.3256560  2.2371451E-003 -5.8523986E-003       4.8632642       4.8632249  8.0722632E-004
       1.5907871  1.1828190E-003    -0.010491778       5.8363960       5.8363282  1.1611264E-003
       1.8559183 -3.6214511E-005    -0.015962345       6.8097892       6.8096817  1.5783633E-003
       2.1210495 -1.4070353E-003    -0.022257910       7.7834873       7.7833271  2.0584322E-003
       2.3861807 -2.9146907E-003    -0.029371316       8.7575341       8.7573063  2.6007504E-003
       2.6513119 -4.5421842E-003    -0.037294429       9.7319731       9.7316612  3.2046571E-003
       2.9164431 -6.2704625E-003    -0.046018135       10.706848       10.706434  3.8694135E-003
       3.1815743 -8.0784039E-003    -0.055532326       11.682203       11.681666  4.5942023E-003
       3.4467055 -9.9428010E-003    -0.065825892       12.658081       12.657400  5.3781277E-003
       3.7118367    -0.011838345    -0.076886712       13.634526       13.633678  6.2202153E-003
       3.9769679    -0.013737608    -0.088701639       14.611583       14.610543  7.1194122E-003
       4.2420991    -0.015611025     -0.10125649       15.589295       15.588036  8.0745861E-003
       4.5072302    -0.017426873     -0.11453603       16.567706       16.566201  9.0845263E-003
       4.7723614    -0.019151249     -0.12852395       17.546859       17.545079     0.010147942
       5.0374926    -0.020748050     -0.14320288       18.526800       18.524714     0.011263465
       5.3026238    -0.022178948     -0.15855432       19.507573       19.505148     0.012429645
       5.5677550    -0.023403368     -0.17455869       20.489221       20.486425     0.013644956
       5.8328862    -0.024378461     -0.19119523       21.471789       21.468588     0.014907788
       6.0980174    -0.025059080     -0.20844206       22.455321       22.451680     0.016216455
       6.3631486    -0.025397757     -0.22627610       23.439862       23.435744     0.017569192
       6.6282798    -0.025344671     -0.24467306       24.425456       24.420825     0.018964152
       6.8934110    -0.024847628     -0.26360745       25.412148       25.406965     0.020399411
       7.1585422    -0.023852031     -0.28305251       26.399983       26.394209     0.021872966
       7.4236733    -0.022300859     -0.30298018       27.389005       27.382602     0.023382736
       7.6888045    -0.020134635     -0.32336113       28.379259       28.372187     0.024926562
       7.9539357    -0.017291409     -0.34416468       29.370792       29.363010     0.026502206
       8.2190669    -0.013706733     -0.36535875       30.363646       30.355114     0.028107356
       8.4841981 -9.3136363E-003     -0.38690990       31.357869       31.348546     0.029739622
       8.7493293 -4.0426145E-003     -0.40878322       32.353505       32.343350     0.031396541
       9.0144605  2.1783972E-003     -0.43094235       33.350599       33.339572     0.033075575
       9.2795917  9.4240273E-003     -0.45334940       34.349198       34.337258     0.034774116
       9.5447229     0.017771485     -0.47596494       35.349347       35.336453     0.036489483
       9.8098541     0.027300560     -0.49874795       36.351093       36.337205     0.038218927
       10.074985     0.038093628     -0.52165577       37.354480       37.339559     0.039959634
       10.340116     0.050235637     -0.54464406       38.359556       38.343563     0.041708725
       10.605248     0.063814101     -0.56766675       39.366367       39.349264     0.043463260
       10.870379     0.078919072     -0.59067599       40.374959       40.356709     0.045220239
       11.135510     0.095643117     -0.61362213       41.385379       41.365946     0.046976611
       11.400641      0.11408126     -0.63645361       42.397674       42.377024     0.048729274
       11.665772      0.13433096     -0.65911694       43.411891       43.389990     0.050475077
       11.930904      0.15649199     -0.68155664       44.428077       44.404893     0.052210833
       12.196035      0.18066641     -0.70371519       45.446281       45.421783     0.053933318
       12.461166      0.20695840     -0.72553294       46.466549       46.440710     0.055639280
       12.726297      0.23547419     -0.74694805       47.488929       47.461722     0.057325446
       12.991428      0.26632189     -0.76789646       48.513471       48.484870     0.058988532
       13.256560      0.29961130     -0.78831176       49.540221       49.510206     0.060625248
       13.521691      0.33545369     -0.80812517       50.569230       50.537779     0.062232312
       13.786822      0.37396159     -0.82726544       51.600546       51.567642     0.063806459
       14.051953      0.41524848     -0.84565878       52.634218       52.599847     0.065344455
       14.317084      0.45942847     -0.86322876       53.670296       53.634445     0.066843110
       14.582216      0.50661587     -0.87989624       54.708830       54.671490     0.068299294
       14.847347      0.55692481     -0.89557930       55.749871       55.711035     0.069709954
       15.112478      0.61046868     -0.91019313       56.793469       56.753133     0.071072133
       15.377609      0.66735954     -0.92364992       57.839675       57.797839     0.072382991
       15.642740      0.72770745     -0.93585880       58.888541       58.845208     0.073639830
       15.907871      0.79161969     -0.94672573       59.940120       59.895294     0.074840119
       16.173003      0.85919985     -0.95615339       60.994463       60.948154     0.075981523
       16.438134      0.93054684     -0.96404106       62.051625       62.003843     0.077061935
       16.703265       1.0057537     -0.97028457       63.111658       63.062420     0.078079515
       16.968396       1.0849061     -0.97477611       64.174619       64.123940     0.079032723
       17.233527       1.1680813     -0.97740418       65.240560       65.188462     0.079920371
       17.498659       1.2553456     -0.97805347       66.309540       66.256044     0.080741668
       17.763790       1.3467531     -0.97660470       67.381615       67.326746     0.081496273
       18.028921       1.4423430     -0.97293456       68.456842       68.400627     0.082184360
       18.294052       1.5421371     -0.96691555       69.535280       69.477748     0.082806683
       18.559183       1.6461366     -0.95841588       70.616990       70.558170     0.083364652
       18.824315       1.7543190     -0.94729932       71.702033       71.641954     0.083860419
       19.089446       1.8666340     -0.93342520       72.790471       72.729163     0.084296965
       19.354577       1.9829989     -0.91664813       73.882368       73.819859     0.084678215
       19.619708       2.1032935     -0.89681800       74.977791       74.914107     0.085009146
       19.884839       2.2273542     -0.87377986       76.076807       76.011971     0.085295926
       20.149971       2.3549672     -0.84737382       77.179484       77.113517     0.085546054
       20.415102       2.4858605     -0.81743497       78.285896       78.218809     0.085768529
       20.680233       2.6196950     -0.78379332       79.396117       79.327916     0.085974036
       20.945364       2.7560542     -0.74627373       80.510224       80.440903     0.086175154
       21.210495       2.8944319     -0.70469591       81.628296       81.557841     0.086386590
       21.475626       3.0342185     -0.65887438       82.750418       82.678798     0.086625452
       21.740758       3.1746850     -0.60861865       83.876678       83.803843     0.086911537
       22.005889       3.3149641     -0.55373310       85.007167       84.933048     0.087267687
       22.271020       3.4540286     -0.49401726       86.141982       86.066485     0.087720175
       22.536151       3.5906664     -0.42926595       87.281226       87.204226     0.088299144
       22.801282       3.7234508     -0.35926964       88.425007       88.346344     0.089039116
       23.066414       3.8507064     -0.28381478       89.573440       89.492915     0.089979575
       23.331545       3.9704687     -0.20268432       90.726650       90.644013     0.091165632
       23.596676       4.0804370     -0.11565844       91.884767       91.799716     0.092648795
       23.861807       4.1779187    -0.022515368       93.047936       92.960100     0.094487863
       24.126938       4.2597641     0.076967527       94.216311       94.125245     0.096749955
       24.392070       4.3222888      0.18301231       95.390059       95.295229     0.099511718
       24.657201       4.3611817      0.29583875       96.569363       96.470134      0.10286074
       24.922332       4.3713960      0.41566210       97.754425       97.650040      0.10689721
       25.187463       4.3470187      0.54269033       98.945466       98.835032      0.11173587
       25.452594       4.2811148      0.67712063       100.14273       100.02519      0.11750835
       25.717726       4.1655396      0.81913506       101.34649       101.22061      0.12436596
       25.982857       3.9907127      0.96889494       102.55705       102.42136      0.13248304
       26.247988       3.7453445       1.1265339       103.77476       103.62755      0.14206096
       26.513119       3.4161032       1.2921491       105.00000       104.83925      0.15333314

Table series: Data for wavelength : 0.656273 µm.
   Y Angle (deg)       Tan Shift       Sag Shift     Real Height     Ref. Height      Distortion
  --------------  --------------  --------------  --------------  --------------  --------------
      0.00000000      0.26162649      0.26162649      0.00000000      0.00000000      0.00000000
      0.26513119      0.26150904      0.26119382      0.97233342      0.97233300  4.3423430E-005
      0.53026238      0.26116852      0.25989629       1.9447104       1.9447076  1.4090191E-004
      0.79539357      0.26060783      0.25773532       2.9171744       2.9171656  3.0323552E-004
       1.0605248      0.25983189      0.25471327       3.8897691       3.8897485  5.3022847E-004
       1.3256560      0.25884764      0.25083346       4.8625379       4.8624980  8.2160210E-004
       1.5907871      0.25766405      0.24610014       5.8355246       5.8354559  1.1770126E-003
       1.8559183      0.25629212      0.24051856       6.8087725       6.8086639  1.5960244E-003
       2.1210495      0.25474490      0.23409488       7.7823255       7.7821637  2.0781274E-003
       2.3861807      0.25303749      0.22683627       8.7562270       8.7559974  2.6227330E-003
       2.6513119      0.25118706      0.21875084       9.7305208       9.7302066  3.2291736E-003
       2.9164431      0.24921285      0.20984772       10.705251       10.704834  3.8967023E-003
       3.1815743      0.24713620      0.20013700       11.680460       11.679920  4.6244933E-003
       3.4467055      0.24498055      0.18962978       12.656193       12.655508  5.4116409E-003
       3.7118367      0.24277149      0.17833818       13.632493       13.631641  6.2571603E-003
       3.9769679      0.24053672      0.16627534       14.609405       14.608359  7.1599864E-003
       4.2420991      0.23830614      0.15345543       15.586972       15.585706  8.1189743E-003
       4.5072302      0.23611181      0.13989368       16.565237       16.563724  9.1328990E-003
       4.7723614      0.23398801      0.12560638       17.544246       17.542456     0.010200455
       5.0374926      0.23197126      0.11061092       18.524042       18.521945     0.011320256
       5.3026238      0.23010034     0.094925750       19.504669       19.502233     0.012490836
       5.5677550      0.22841629     0.078570480       20.486172       20.483363     0.013710648
       5.8328862      0.22696249     0.061565836       21.468594       21.465379     0.014978062
       6.0980174      0.22578465     0.043933705       22.451981       22.448324     0.016291369
       6.3631486      0.22493084     0.025697156       23.436377       23.432241     0.017648779
       6.6282798      0.22445153  6.8804605E-003       24.421826       24.417174     0.019048421
       6.8934110      0.22439962    -0.012490882       25.408372       25.403167     0.020488342
       7.1585422      0.22483046    -0.032390117       26.396061       26.390264     0.021966509
       7.4236733      0.22580188    -0.052789211       27.384938       27.378509     0.023480809
       7.6888045      0.22737424    -0.073658819       28.375047       28.367946     0.025029048
       7.9539357      0.22961041    -0.094968256       29.366433       29.358621     0.026608953
       8.2190669      0.23257586     -0.11668547       30.359141       30.350577     0.028218171
       8.4841981      0.23633864     -0.13877699       31.353218       31.343860     0.029854271
       8.7493293      0.24096942     -0.16120793       32.348707       32.338516     0.031514744
       9.0144605      0.24654151     -0.18394190       33.345655       33.334589     0.033197004
       9.2795917      0.25313089     -0.20694102       34.344107       34.332125     0.034898390
       9.5447229      0.26081621     -0.23016585       35.344108       35.331171     0.036616168
       9.8098541      0.26967881     -0.25357534       36.345706       36.331774     0.038347529
       10.074985      0.27980274     -0.27712683       37.348945       37.333978     0.040089595
       10.340116      0.29127475     -0.30077593       38.353872       38.337832     0.041839420
       10.605248      0.30418428     -0.32447658       39.360534       39.343383     0.043593991
       10.870379      0.31862347     -0.34818088       40.368976       40.350677     0.045350233
       11.135510      0.33468712     -0.37183914       41.379246       41.359763     0.047105009
       11.400641      0.35247269     -0.39539975       42.391390       42.370690     0.048855130
       11.665772      0.37208021     -0.41880920       43.405455       43.383504     0.050597351
       11.930904      0.39361229     -0.44201192       44.421489       44.398256     0.052328382
       12.196035      0.41717398     -0.46495034       45.439539       45.414994     0.054044891
       12.461166      0.44287277     -0.48756472       46.459652       46.433768     0.055743511
       12.726297      0.47081840     -0.50979315       47.481876       47.454628     0.057420843
       12.991428      0.50112277     -0.53157146       48.506261       48.477623     0.059073470
       13.256560      0.53389983     -0.55283314       49.532853       49.502805     0.060697960
       13.521691      0.56926529     -0.57350928       50.561701       50.530225     0.062290877
       13.786822      0.60733652     -0.59352850       51.592855       51.559935     0.063848793
       14.051953      0.64823221     -0.61281684       52.626363       52.591985     0.065368297
       14.317084      0.69207214     -0.63129769       53.662275       53.626428     0.066846011
       14.582216      0.73897678     -0.64889175       54.700642       54.663318     0.068278601
       14.847347      0.78906690     -0.66551685       55.741512       55.702708     0.069662798
       15.112478      0.84246315     -0.68108795       56.784936       56.744650     0.070995410
       15.377609      0.89928545     -0.69551698       57.830966       57.789200     0.072273347
       15.642740      0.95965246     -0.70871276       58.879653       58.836412     0.073493639
       15.907871       1.0236808     -0.72058092       59.931049       59.886341     0.074653467
       16.173003       1.0914841     -0.73102377       60.985205       60.939044     0.075750180
       16.438134       1.1631725     -0.73994020       62.042176       61.994576     0.076781338
       16.703265       1.2388511     -0.74722556       63.102014       63.052994     0.077744733
       16.968396       1.3186190     -0.75277157       64.164774       64.114355     0.078638438
       17.233527       1.4025675     -0.75646616       65.230509       65.178718     0.079460839
       17.498659       1.4907791     -0.75819339       66.299277       66.246141     0.080210690
       17.763790       1.5833252     -0.75783333       67.371133       67.316683     0.080887156
       18.028921       1.6802641     -0.75526189       68.446135       68.390403     0.081489877
       18.294052       1.7816385     -0.75035074       69.524340       69.467363     0.082019030
       18.559183       1.8874728     -0.74296716       70.605808       70.547623     0.082475399
       18.824315       1.9977696     -0.73297390       71.690599       71.631245     0.082860456
       19.089446       2.1125069     -0.72022914       72.778776       72.718292     0.083176445
       19.354577       2.2316327     -0.70458622       73.870401       73.808825     0.083426488
       19.619708       2.3550611     -0.68589364       74.965540       74.902910     0.083614692
       19.884839       2.4826662     -0.66399486       76.064258       76.000610     0.083746274
       20.149971       2.6142763     -0.63872827       77.166623       77.101991     0.083827697
       20.415102       2.7496658     -0.60992702       78.272708       78.207118     0.083866828
       20.680233       2.8885476     -0.57741894       79.382583       79.316058     0.083873115
       20.945364       3.0305627     -0.54102650       80.496326       80.428880     0.083857781
       21.210495       3.1752693     -0.50056672       81.614014       81.545651     0.083834045
       21.475626       3.3221296     -0.45585111       82.735728       82.666439     0.083817383
       21.740758       3.4704952     -0.40668580       83.861555       83.791317     0.083825791
       22.005889       3.6195890     -0.35287140       84.991584       84.920353     0.083880131
       22.271020       3.7684853     -0.29420317       86.125909       86.053620     0.084004483
       22.536151       3.9160860     -0.23047119       87.264629       87.191191     0.084226564
       22.801282       4.0610934     -0.16146052       88.407850       88.333139     0.084578207
       23.066414       4.2019776    -0.086951513       89.555682       89.479538     0.085095901
       23.331545       4.3369390 -6.7202504E-003       90.708245       90.630465     0.085821420
       23.596676       4.4638645     0.079460927       91.865667       91.785995     0.086802541
       23.861807       4.5802747      0.17182270       93.028085       92.946206     0.088093881
       24.126938       4.6832634      0.27059784       94.195648       94.111176     0.089757855
       24.392070       4.7694247      0.37602006       95.368516       95.280985     0.091865804
       24.657201       4.8347673      0.48832244       96.546864       96.455714     0.094499307
       24.922332       4.8746122      0.60773563       97.730885       97.635444     0.097751724
       25.187463       4.8834710      0.73448538       98.920789       98.820259      0.10173001
       25.452594       4.8549004      0.86878951       100.11681       100.01024      0.10655687
       25.717726       4.7813268       1.0108542       101.31921       101.20548      0.11237333
       25.982857       4.6538360       1.1608688       102.52827       102.40605      0.11934182
       26.247988       4.4619175       1.3190004       103.74432       103.61206      0.12764989
       26.513119       4.1931554       1.4853854       104.96772       104.82358      0.13751471
