Results for:	
File:	C:\Users\User\OneDrive - Massachusetts Institute of Technology\Documents\MIT\Grad School\Classes\2.156\Lens Project\Prime Lenses\Imaging_Optics_Figure_7_28_US1792917.zmx
Title:	Double Gauss lens, US patent 1792917 (Carl Zeiss, Jena); Imaging Optics p. 462-466.
Date:	11/7/2025 5:24:14 PM

0 message(s) in output.
1 series table(s) in output.

Table series: Data for wavelength : 0.550000 Âµm.
        Y Height       Tan Shift       Sag Shift     Real Height     Ref. Height      Distortion
  --------------  --------------  --------------  --------------  --------------  --------------
      0.00000000      0.27063874      0.27063874      0.00000000      0.00000000      0.00000000
      0.62000000      0.27015280      0.27025229      0.61834725      0.61834729 -6.1086822E-006
       1.2400000      0.26874042      0.26909353       1.2366943       1.2366946 -2.4426404E-005
       1.8600000      0.26640409      0.26716428       1.8550408       1.8550419 -5.4928133E-005
       2.4800000      0.26314796      0.26446751       2.4733867       2.4733891 -9.7572153E-005
       3.1000000      0.25897787      0.26100743       3.0917317       3.0917364 -1.5230006E-004
       3.7200000      0.25390129      0.25678942       3.7100756       3.7100837 -2.1903677E-004
       4.3400000      0.24792733      0.25182006       4.3284181       4.3284310 -2.9769049E-004
       4.9600000      0.24106679      0.24610710       4.9467591       4.9467783 -3.8815273E-004
       5.5800000      0.23333204      0.23965949       5.5650983       5.5651256 -4.9029832E-004
       6.2000000      0.22473711      0.23248735       6.1834355       6.1834729 -6.0398535E-004
       6.8200000      0.21529763      0.22460195       6.8017706       6.8018201 -7.2905521E-004
       7.4400000      0.20503082      0.21601575       7.4201032       7.4201674 -8.6533255E-004
       8.0600000      0.19395546      0.20674234       8.0384333       8.0385147 -1.0126253E-003
       8.6800000      0.18209191      0.19679647       8.6567607       8.6568620 -1.1707246E-003
       9.3000000      0.16946206      0.18619401       9.2750851       9.2752093 -1.3394048E-003
       9.9200000      0.15608932      0.17495198       9.8934063       9.8935566 -1.5184236E-003
       10.540000      0.14199860      0.16308849       10.511724       10.511904 -1.7075216E-003
       11.160000      0.12721628      0.15062278       11.130039       11.130251 -1.9064229E-003
       11.780000      0.11177019      0.13757515       11.748350       11.748598 -2.1148343E-003
       12.400000     0.095689585      0.12396701       12.366657       12.366946 -2.3324461E-003
       13.020000     0.079005131      0.10982084       12.984961       12.985293 -2.5589313E-003
       13.640000     0.061748850     0.095160145       13.603260       13.603640 -2.7939460E-003
       14.260000     0.043954107     0.080009506       14.221556       14.221988 -3.0371293E-003
       14.880000     0.025655582     0.064394517       14.839847       14.840335 -3.2881031E-003
       15.500000  6.8892333E-003     0.048341787       15.458134       15.458682 -3.5464720E-003
       16.120000    -0.012307735     0.031878927       16.076417       16.077029 -3.8118234E-003
       16.740000    -0.031896903     0.015034533       16.694695       16.695377 -4.0837273E-003
       17.360000    -0.051838673 -2.1618314E-003       17.312969       17.313724 -4.3617362E-003
       17.980000    -0.072092303    -0.019679645       17.931238       17.932071 -4.6453850E-003
       18.600000    -0.092615943    -0.037487449       18.549503       18.550419 -4.9341910E-003
       19.220000     -0.11336667    -0.055552860       19.167764       19.168766 -5.2276535E-003
       19.840000     -0.13430054    -0.073842590       19.786020       19.787113 -5.5252540E-003
       20.460000     -0.15537261    -0.092322456       20.404272       20.405460 -5.8264558E-003
       21.080000     -0.17653697     -0.11095740       21.022519       21.023808 -6.1307039E-003
       21.700000     -0.19774681     -0.12971151       21.640762       21.642155 -6.4374248E-003
       22.320000     -0.21895447     -0.14854802       22.259001       22.260502 -6.7460266E-003
       22.940000     -0.24011143     -0.16742934       22.877235       22.878850 -7.0558984E-003
       23.560000     -0.26116840     -0.18631707       23.495466       23.497197 -7.3664102E-003
       24.180000     -0.28207534     -0.20517203       24.113693       24.115544 -7.6769129E-003
       24.800000     -0.30278154     -0.22395422       24.731916       24.733891 -7.9867377E-003
       25.420000     -0.32323561     -0.24262290       25.350136       25.352239 -8.2951963E-003
       26.040000     -0.34338558     -0.26113659       25.968352       25.970586 -8.6015803E-003
       26.660000     -0.36317890     -0.27945306       26.586566       26.588933 -8.9051610E-003
       27.280000     -0.38256254     -0.29752936       27.204776       27.207281 -9.2051891E-003
       27.900000     -0.40148300     -0.31532182       27.822984       27.825628 -9.5008945E-003
       28.520000     -0.41988637     -0.33278612       28.441190       28.443975 -9.7914860E-003
       29.140000     -0.43771839     -0.34987721       29.059394       29.062322    -0.010076151
       29.760000     -0.45492448     -0.36654941       29.677597       29.680670    -0.010354054
       30.380000     -0.47144983     -0.38275638       30.295798       30.299017    -0.010624340
       31.000000     -0.48723942     -0.39845112       30.913999       30.917364    -0.010886128
       31.620000     -0.50223808     -0.41358602       31.532199       31.535712    -0.011138516
       32.240000     -0.51639058     -0.42811284       32.150400       32.154059    -0.011380581
       32.860000     -0.52964165     -0.44198276       32.768601       32.772406    -0.011611371
       33.480000     -0.54193604     -0.45514632       33.386803       33.390753    -0.011829915
       34.100000     -0.55321861     -0.46755350       34.005008       34.009101    -0.012035214
       34.720000     -0.56343437     -0.47915369       34.623214       34.627448    -0.012226248
       35.340000     -0.57252856     -0.48989572       35.241424       35.245795    -0.012401969
       35.960000     -0.58044668     -0.49972784       35.859638       35.864143    -0.012561303
       36.580000     -0.58713462     -0.50859775       36.477855       36.482490    -0.012703153
       37.200000     -0.59253866     -0.51645260       37.096078       37.100837    -0.012826394
       37.820000     -0.59660561     -0.52323900       37.714307       37.719184    -0.012929874
       38.440000     -0.59928283     -0.52890301       38.332543       38.337532    -0.013012415
       39.060000     -0.60051834     -0.53339014       38.950786       38.955879    -0.013072811
       39.680000     -0.60026089     -0.53664539       39.569038       39.574226    -0.013109829
       40.300000     -0.59846005     -0.53861321       40.187299       40.192574    -0.013122207
       40.920000     -0.59506627     -0.53923753       40.805571       40.810921    -0.013108657
       41.540000     -0.59003103     -0.53846173       41.423854       41.429268    -0.013067860
       42.160000     -0.58330687     -0.53622867       42.042150       42.047615    -0.012998471
       42.780000     -0.57484752     -0.53248069       42.660459       42.665963    -0.012899114
       43.400000     -0.56460799     -0.52715957       43.278783       43.284310    -0.012768385
       44.020000     -0.55254472     -0.52020656       43.897123       43.902657    -0.012604852
       44.640000     -0.53861562     -0.51156237       44.515481       44.521005    -0.012407053
       45.260000     -0.52278025     -0.50116716       45.133857       45.139352    -0.012173498
       45.880000     -0.50499991     -0.48896054       45.752253       45.757699    -0.011902668
       46.500000     -0.48523779     -0.47488155       46.370670       46.376046    -0.011593015
       47.120000     -0.46345907     -0.45886867       46.989110       46.994394    -0.011242963
       47.740000     -0.43963113     -0.44085979       47.607575       47.612741    -0.010850910
       48.360000     -0.41372364     -0.42079224       48.226065       48.231088    -0.010415225
       48.980000     -0.38570872     -0.39860271       48.844583       48.849436 -9.9342510E-003
       49.600000     -0.35556115     -0.37422732       49.463130       49.467783 -9.4063051E-003
       50.220000     -0.32325853     -0.34760154       50.081708       50.086130 -8.8296800E-003
       50.840000     -0.28878143     -0.31866022       50.700318       50.704477 -8.2026442E-003
       51.460000     -0.25211364     -0.28733754       51.318963       51.322825 -7.5234439E-003
       52.080000     -0.21324232     -0.25356702       51.937645       51.941172 -6.7903042E-003
       52.700000     -0.17215827     -0.21728152       52.556365       52.559519 -6.0014305E-003
       53.320000     -0.12885613     -0.17841315       53.175125       53.177867 -5.1550107E-003
       53.940000    -0.083334622     -0.13689334       53.793928       53.796214 -4.2492172E-003
       54.560000    -0.035596823    -0.092652747       54.412775       54.414561 -3.2822089E-003
       55.180000     0.014349582    -0.045621291       55.031669       55.032908 -2.2521342E-003
       55.800000     0.066492003  4.2719098E-003       55.650612       55.651256 -1.1571338E-003
       56.420000      0.12081265     0.057098541       56.269606       56.269603  4.6564980E-006
       57.040000      0.17728823      0.11293112       56.888653       56.887950  1.2351016E-003
       57.660000      0.23588955      0.17184303       57.507756       57.506298  2.5360635E-003
       58.280000      0.29658126      0.23390852       58.126917       58.124645  3.9093971E-003
       58.900000      0.35932139      0.29920278       58.746139       58.742992  5.3569452E-003
       59.520000      0.42406101      0.36780191       59.365424       59.361339  6.8805334E-003
       60.140000      0.49074378      0.43978299       59.984774       59.979687  8.4819643E-003
       60.760000      0.55930554      0.51522412       60.604193       60.598034     0.010163011
       61.380000      0.62967382      0.59420441       61.223682       61.216381     0.011925412
       62.000000      0.70176737      0.67680404       61.843244       61.834729     0.013770859
