Results for:	
File:	C:\Users\User\OneDrive - Massachusetts Institute of Technology\Documents\MIT\Grad School\Classes\2.156\Lens Project\Prime Lenses\US09128271-1.zmx
Title:	
Date:	11/7/2025 5:51:29 PM

0 message(s) in output.
3 series table(s) in output.

Table series: Data for wavelength : 0.486133 µm.
   Y Angle (deg)       Tan Shift       Sag Shift     Real Height     Ref. Height      Distortion
  --------------  --------------  --------------  --------------  --------------  --------------
      0.00000000 -3.1724423E-003 -3.1724423E-003      0.00000000      0.00000000      0.00000000
      0.48000000 -3.1724531E-003 -3.1733982E-003  8.1440556E-003  8.1441149E-003 -7.2866643E-004
      0.96000000 -3.1714563E-003 -3.1762657E-003     0.016288898     0.016289373 -2.9137850E-003
       1.4400000 -3.1694491E-003 -3.1810440E-003     0.024435317     0.024436919 -6.5549834E-003
       1.9200000 -3.1664261E-003 -3.1877316E-003     0.032584100     0.032587896    -0.011651261
       2.4000000 -3.1623800E-003 -3.1963265E-003     0.040736038     0.040743454    -0.018201216
       2.8800000 -3.1573014E-003 -3.2068263E-003     0.048891926     0.048904741    -0.026203038
       3.3600000 -3.1511784E-003 -3.2192278E-003     0.057052561     0.057072910    -0.035654508
       3.8400000 -3.1439971E-003 -3.2335271E-003     0.065218743     0.065249119    -0.046552994
       4.3200000 -3.1357412E-003 -3.2497200E-003     0.073391278     0.073434528    -0.058895441
       4.8000000 -3.1263920E-003 -3.2678013E-003     0.081570976     0.081630304    -0.072678370
       5.2800000 -3.1159284E-003 -3.2877654E-003     0.089758654     0.089837620    -0.087897868
       5.7600000 -3.1043271E-003 -3.3096057E-003     0.097955135     0.098057654     -0.10454958
       6.2400000 -3.0915618E-003 -3.3333150E-003      0.10616125      0.10629159     -0.12262870
       6.7200000 -3.0776040E-003 -3.3588855E-003      0.11437784      0.11454063     -0.14212995
       7.2000000 -3.0624223E-003 -3.3863081E-003      0.12260574      0.12280597     -0.16304761
       7.6800000 -3.0459824E-003 -3.4155732E-003      0.13084582      0.13108883     -0.18537543
       8.1600000 -3.0282472E-003 -3.4466702E-003      0.13909894      0.13939042     -0.20910670
       8.6400000 -3.0091766E-003 -3.4795874E-003      0.14736598      0.14771198     -0.23423418
       9.1200000 -2.9887272E-003 -3.5143120E-003      0.15564784      0.15605475     -0.26075010
       9.6000000 -2.9668522E-003 -3.5508303E-003      0.16394540      0.16441999     -0.28864615
       10.080000 -2.9435019E-003 -3.5891273E-003      0.17225959      0.17280898     -0.31791346
       10.560000 -2.9186218E-003 -3.6291866E-003      0.18059135      0.18122299     -0.34854255
       11.040000 -2.8921547E-003 -3.6709907E-003      0.18894160      0.18966332     -0.38052338
       11.520000 -2.8640388E-003 -3.7145203E-003      0.19731133      0.19813129     -0.41384525
       12.000000 -2.8342081E-003 -3.7597550E-003      0.20570150      0.20662822     -0.44849681
       12.480000 -2.8025923E-003 -3.8066722E-003      0.21411312      0.21515548     -0.48446606
       12.960000 -2.7691161E-003 -3.8552481E-003      0.22254720      0.22371441     -0.52174026
       13.440000 -2.7336993E-003 -3.9054565E-003      0.23100479      0.23230641     -0.56030597
       13.920000 -2.6962564E-003 -3.9572695E-003      0.23948693      0.24093289     -0.60014896
       14.400000 -2.6566960E-003 -4.0106569E-003      0.24799472      0.24959526     -0.64125423
       14.880000 -2.6149209E-003 -4.0655861E-003      0.25652926      0.25829498     -0.68360592
       15.360000 -2.5708274E-003 -4.1220223E-003      0.26509169      0.26703352     -0.72718733
       15.840000 -2.5243051E-003 -4.1799276E-003      0.27368315      0.27581237     -0.77198083
       16.320000 -2.4752361E-003 -4.2392616E-003      0.28230485      0.28463306     -0.81796785
       16.800000 -2.4234949E-003 -4.2999806E-003      0.29095799      0.29349712     -0.86512882
       17.280000 -2.3689475E-003 -4.3620377E-003      0.29964383      0.30240614     -0.91344313
       17.760000 -2.3114511E-003 -4.4253824E-003      0.30836365      0.31136172     -0.96288909
       18.240000 -2.2508536E-003 -4.4899606E-003      0.31711877      0.32036549      -1.0134438
       18.720000 -2.1869923E-003 -4.5557138E-003      0.32591053      0.32941912      -1.0650833
       19.200000 -2.1196938E-003 -4.6225795E-003      0.33474033      0.33852430      -1.1177822
       19.680000 -2.0487729E-003 -4.6904902E-003      0.34360961      0.34768276      -1.1715139
       20.160000 -1.9740315E-003 -4.7593735E-003      0.35251983      0.35689627      -1.2262504
       20.640000 -1.8952581E-003 -4.8291517E-003      0.36147252      0.36616663      -1.2819620
       21.120000 -1.8122267E-003 -4.8997410E-003      0.37046924      0.37549569      -1.3386179
       21.600000 -1.7246950E-003 -4.9710516E-003      0.37951161      0.38488532      -1.3961852
       22.080000 -1.6324041E-003 -5.0429869E-003      0.38860131      0.39433746      -1.4546296
       22.560000 -1.5350765E-003 -5.1154431E-003      0.39774004      0.40385405      -1.5139149
       23.040000 -1.4324147E-003 -5.1883085E-003      0.40692961      0.41343712      -1.5740029
       23.520000 -1.3240997E-003 -5.2614632E-003      0.41617185      0.42308873      -1.6348536
       24.000000 -1.2097893E-003 -5.3347783E-003      0.42546866      0.43281097      -1.6964246
       24.480000 -1.0891160E-003 -5.4081149E-003      0.43482204      0.44260602      -1.7586715
       24.960000 -9.6168470E-004 -5.4813241E-003      0.44423401      0.45247608      -1.8215474
       25.440000 -8.2707079E-004 -5.5542453E-003      0.45370672      0.46242342      -1.8850028
       25.920000 -6.8481725E-004 -5.6267060E-003      0.46324236      0.47245035      -1.9489858
       26.400000 -5.3443196E-004 -5.6985204E-003      0.47284323      0.48255928      -2.0134415
       26.880000 -3.7538487E-004 -5.7694888E-003      0.48251170      0.49275264      -2.0783120
       27.360000 -2.0710348E-004 -5.8393959E-003      0.49225024      0.50303294      -2.1435364
       27.840000 -2.8970812E-005 -5.9080100E-003      0.50206143      0.51340276      -2.2090504
       28.320000  1.5967980E-004 -5.9750816E-003      0.51194795      0.52386476      -2.2747860
       28.800000  3.5956895E-004 -6.0403416E-003      0.52191259      0.53442165      -2.3406716
       29.280000  5.7147614E-004 -6.1035002E-003      0.53195825      0.54507623      -2.4066317
       29.760000  7.9624513E-004 -6.1642447E-003      0.54208798      0.55583139      -2.4725863
       30.240000  1.0347903E-003 -6.2222381E-003      0.55230493      0.56669008      -2.5384511
       30.720000  1.2881026E-003 -6.2771163E-003      0.56261242      0.57765536      -2.6041370
       31.200000  1.5572575E-003 -6.3284865E-003      0.57301391      0.58873036      -2.6695496
       31.680000  1.8434228E-003 -6.3759245E-003      0.58351301      0.59991832      -2.7345894
       32.160000  2.1478673E-003 -6.4189716E-003      0.59411352      0.61122256      -2.7991508
       32.640000  2.4719706E-003 -6.4571322E-003      0.60481940      0.62264653      -2.8631223
       33.120000  2.8172341E-003 -6.4898699E-003      0.61563481      0.63419376      -2.9263857
       33.600000  3.1852929E-003 -6.5166042E-003      0.62656411      0.64586792      -2.9888160
       34.080000  3.5779261E-003 -6.5367067E-003      0.63761190      0.65767276      -3.0502804
       34.560000  3.9970758E-003 -6.5494962E-003      0.64878297      0.66961218      -3.1106384
       35.040000  4.4448586E-003 -6.5542341E-003      0.66008239      0.68169020      -3.1697410
       35.520000  4.9235842E-003 -6.5501191E-003      0.67151548      0.69391098      -3.2274299
       36.000000  5.4357731E-003 -6.5362811E-003      0.68308787      0.70627879      -3.2835374
       36.480000  5.9841770E-003 -6.5117748E-003      0.69480544      0.71879810      -3.3378849
       36.960000  6.5717991E-003 -6.4755722E-003      0.70667445      0.73147347      -3.3902831
       37.440000  7.2019197E-003 -6.4265549E-003      0.71870147      0.74430967      -3.4405305
       37.920000  7.8781172E-003 -6.3635046E-003      0.73089346      0.75731161      -3.4884128
       38.400000  8.6042949E-003 -6.2850937E-003      0.74325777      0.77048439      -3.5337020
       38.880000  9.3847079E-003 -6.1898738E-003      0.75580217      0.78383327      -3.5761553
       39.360000     0.010223988 -6.0762635E-003      0.76853493      0.79736372      -3.6155140
       39.840000     0.011127171 -5.9425343E-003      0.78146477      0.81108142      -3.6515021
       40.320000     0.012099717 -5.7867954E-003      0.79460097      0.82499225      -3.6838254
       40.800000     0.013147533 -5.6069765E-003      0.80795339      0.83910229      -3.7121698
       41.280000     0.014276985 -5.4008079E-003      0.82153251      0.85341790      -3.7361994
       41.760000     0.015494895 -5.1657986E-003      0.83534947      0.86794565      -3.7555554
       42.240000     0.016808533 -4.8992120E-003      0.84941616      0.88269237      -3.7698536
       42.720000     0.018225574 -4.5980380E-003      0.86374526      0.89766518      -3.7786825
       43.200000     0.019754029 -4.2589609E-003      0.87835030      0.91287146      -3.7816006
       43.680000     0.021402117 -3.8783241E-003      0.89324576      0.92831889      -3.7781340
       44.160000     0.023178084 -3.4520891E-003      0.90844713      0.94401549      -3.7677730
       44.640000     0.025089903 -2.9757889E-003      0.92397103      0.95996959      -3.7499688
       45.120000     0.027144859 -2.4444742E-003      0.93983531      0.97618988      -3.7241289
       45.600000     0.029348923 -1.8526518E-003      0.95605915      0.99268540      -3.6896128
       46.080000     0.031705872 -1.1942131E-003      0.97266325       1.0094656      -3.6457256
       46.560000     0.034216018 -4.6235046E-004      0.98966995       1.0265403      -3.5917118
       47.040000     0.036874417  3.5054151E-004       1.0071035       1.0439199      -3.5267462
       47.520000     0.039668318  1.2529820E-003       1.0249900       1.0616150      -3.4499240
       48.000000     0.042573552  2.2545440E-003       1.0433584       1.0796368      -3.3602474

Table series: Data for wavelength : 0.587562 µm.
   Y Angle (deg)       Tan Shift       Sag Shift     Real Height     Ref. Height      Distortion
  --------------  --------------  --------------  --------------  --------------  --------------
      0.00000000 -4.1154146E-003 -4.1154146E-003      0.00000000      0.00000000      0.00000000
      0.48000000 -4.1152750E-003 -4.1164325E-003  8.1445257E-003  8.1445852E-003 -7.3078928E-004
      0.96000000 -4.1138240E-003 -4.1194858E-003     0.016289838     0.016290314 -2.9206988E-003
       1.4400000 -4.1110580E-003 -4.1245738E-003     0.024436724     0.024438330 -6.5698897E-003
       1.9200000 -4.1069712E-003 -4.1316950E-003     0.032585973     0.032589778    -0.011677373
       2.4000000 -4.1015549E-003 -4.1408476E-003     0.040738374     0.040745807    -0.018241761
       2.8800000 -4.0947982E-003 -4.1520290E-003     0.048894722     0.048907565    -0.026261265
       3.3600000 -4.0866876E-003 -4.1652361E-003     0.057055811     0.057076206    -0.035733691
       3.8400000 -4.0772069E-003 -4.1804652E-003     0.065222442     0.065252887    -0.046656436
       4.3200000 -4.0663373E-003 -4.1977120E-003     0.073395420     0.073438769    -0.059026480
       4.8000000 -4.0540575E-003 -4.2169716E-003     0.081575555     0.081635018    -0.072840384
       5.2800000 -4.0403431E-003 -4.2382381E-003     0.089763662     0.089842808    -0.088094279
       5.7600000 -4.0251672E-003 -4.2615054E-003     0.097960563     0.098063317     -0.10478386
       6.2400000 -4.0084998E-003 -4.2867663E-003      0.10616709      0.10629773     -0.12290437
       6.7200000 -3.9903081E-003 -4.3140129E-003      0.11438407      0.11454725     -0.14245061
       7.2000000 -3.9705560E-003 -4.3432366E-003      0.12261237      0.12281306     -0.16341690
       7.6800000 -3.9492044E-003 -4.3744277E-003      0.13085282      0.13109640     -0.18579710
       8.1600000 -3.9262108E-003 -4.4075758E-003      0.13910631      0.13939847     -0.20958454
       8.6400000 -3.9015293E-003 -4.4426694E-003      0.14737370      0.14772051     -0.23477208
       9.1200000 -3.8751102E-003 -4.4796959E-003      0.15565588      0.15606376     -0.26135205
       9.6000000 -3.8469004E-003 -4.5186419E-003      0.16395377      0.16442949     -0.28931624
       10.080000 -3.8168427E-003 -4.5594924E-003      0.17226826      0.17281896     -0.31865586
       10.560000 -3.7848759E-003 -4.6022314E-003      0.18060029      0.18123345     -0.34936159
       11.040000 -3.7509343E-003 -4.6468417E-003      0.18895081      0.18967427     -0.38142348
       11.520000 -3.7149480E-003 -4.6933042E-003      0.19732077      0.19814273     -0.41483097
       12.000000 -3.6768423E-003 -4.7415988E-003      0.20571116      0.20664016     -0.44957286
       12.480000 -3.6365371E-003 -4.7917033E-003      0.21412297      0.21516790     -0.48563729
       12.960000 -3.5939476E-003 -4.8435942E-003      0.22255721      0.22372733     -0.52301169
       13.440000 -3.5489831E-003 -4.8972458E-003      0.23101493      0.23231983     -0.56168278
       13.920000 -3.5015471E-003 -4.9526305E-003      0.23949718      0.24094680     -0.60163653
       14.400000 -3.4515370E-003 -5.0097185E-003      0.24800504      0.24960968     -0.64285812
       14.880000 -3.3988435E-003 -5.0684779E-003      0.25653962      0.25830990     -0.68533191
       15.360000 -3.3433502E-003 -5.1288742E-003      0.26510204      0.26704894     -0.72904142
       15.840000 -3.2849335E-003 -5.1908702E-003      0.27369347      0.27582830     -0.77396926
       16.320000 -3.2234616E-003 -5.2544261E-003      0.28231509      0.28464949     -0.82009710
       16.800000 -3.1587945E-003 -5.3194987E-003      0.29096811      0.29351407     -0.86740564
       17.280000 -3.0907832E-003 -5.3860420E-003      0.29965378      0.30242361     -0.91587458
       17.760000 -3.0192689E-003 -5.4540063E-003      0.30837339      0.31137970     -0.96548249
       18.240000 -2.9440829E-003 -5.5233380E-003      0.31712823      0.32038399      -1.0162069
       18.720000 -2.8650453E-003 -5.5939798E-003      0.32591966      0.32943814      -1.0680240
       19.200000 -2.7819646E-003 -5.6658700E-003      0.33474908      0.33854385      -1.1209089
       19.680000 -2.6946369E-003 -5.7389422E-003      0.34361790      0.34770284      -1.1748354
       20.160000 -2.6028445E-003 -5.8131252E-003      0.35252760      0.35691688      -1.2297758
       20.640000 -2.5063557E-003 -5.8883424E-003      0.36147970      0.36618778      -1.2857011
       21.120000 -2.4049232E-003 -5.9645113E-003      0.37047575      0.37551738      -1.3425806
       21.600000 -2.2982830E-003 -6.0415436E-003      0.37951738      0.38490755      -1.4003822
       22.080000 -2.1861533E-003 -6.1193443E-003      0.38860623      0.39436023      -1.4590720
       22.560000 -2.0682331E-003 -6.1978111E-003      0.39774403      0.40387737      -1.5186143
       23.040000 -1.9442006E-003 -6.2768344E-003      0.40693257      0.41346100      -1.5789717
       23.520000 -1.8137119E-003 -6.3562960E-003      0.41617366      0.42311316      -1.6401047
       24.000000 -1.6763987E-003 -6.4360693E-003      0.42546922      0.43283597      -1.7019716
       24.480000 -1.5318670E-003 -6.5160178E-003      0.43482122      0.44263158      -1.7645287
       24.960000 -1.3796945E-003 -6.5959950E-003      0.44423169      0.45250221      -1.8277299
       25.440000 -1.2194286E-003 -6.6758432E-003      0.45370275      0.46245012      -1.8915266
       25.920000 -1.0505840E-003 -6.7553930E-003      0.46323660      0.47247764      -1.9558676
       26.400000 -8.7263969E-004 -6.8344619E-003      0.47283551      0.48258715      -2.0206991
       26.880000 -6.8503627E-004 -6.9128537E-003      0.48250186      0.49278109      -2.0859641
       27.360000 -4.8717239E-004 -6.9903573E-003      0.49223809      0.50306199      -2.1516028
       27.840000 -2.7840167E-004 -7.0667452E-003      0.50204678      0.51343241      -2.2175520
       28.320000 -5.8028572E-005 -7.1417727E-003      0.51193058      0.52389501      -2.2837449
       28.800000  1.7469597E-004 -7.2151762E-003      0.52189228      0.53445251      -2.3501113
       29.280000  4.2057869E-004 -7.2866714E-003      0.53193476      0.54510771      -2.4165768
       29.760000  6.8048948E-004 -7.3559521E-003      0.54206105      0.55586349      -2.4830631
       30.240000  9.5536651E-004 -7.4226882E-003      0.55227428      0.56672281      -2.5494873
       30.720000  1.2462227E-003 -7.4865235E-003      0.56257776      0.57768872      -2.6157619
       31.200000  1.5541521E-003 -7.5470736E-003      0.57297491      0.58876436      -2.6817944
       31.680000  1.8803351E-003 -7.6039235E-003      0.58346933      0.59995296      -2.7474870
       32.160000  2.2260500E-003 -7.6566253E-003      0.59406479      0.61125786      -2.8127363
       32.640000  2.5926785E-003 -7.7046946E-003      0.60476522      0.62268249      -2.8774327
       33.120000  2.9817155E-003 -7.7476080E-003      0.61557475      0.63423039      -2.9414602
       33.600000  3.3947794E-003 -7.7847991E-003      0.62649773      0.64590522      -3.0046963
       34.080000  3.8336221E-003 -7.8156552E-003      0.63753868      0.65771074      -3.0670106
       34.560000  4.3001411E-003 -7.8395126E-003      0.64870239      0.66965085      -3.1282653
       35.040000  4.7963908E-003 -7.8556523E-003      0.65999389      0.68172957      -3.1883142
       35.520000  5.3245958E-003 -7.8632948E-003      0.67141844      0.69395105      -3.2470020
       36.000000  5.8871661E-003 -7.8615942E-003      0.68298163      0.70631958      -3.3041639
       36.480000  6.4867084E-003 -7.8496325E-003      0.69468929      0.71883961      -3.3596248
       36.960000  7.1260424E-003 -7.8264121E-003      0.70654763      0.73151572      -3.4131986
       37.440000  7.8082150E-003 -7.7908487E-003      0.71856316      0.74435266      -3.4646875
       37.920000  8.5365146E-003 -7.7417624E-003      0.73074278      0.75735535      -3.5138809
       38.400000  9.3144840E-003 -7.6778685E-003      0.74309378      0.77052888      -3.5605545
       38.880000     0.010145932 -7.5977673E-003      0.75562387      0.78387853      -3.6044694
       39.360000     0.011034941 -7.4999317E-003      0.76834123      0.79740977      -3.6453707
       39.840000     0.011985871 -7.3826950E-003      0.78125452      0.81112826      -3.6829866
       40.320000     0.013003355 -7.2442363E-003      0.79437294      0.82503989      -3.7170266
       40.800000     0.014092288 -7.0825635E-003      0.80770626      0.83915075      -3.7471803
       41.280000     0.015257791 -6.8954964E-003      0.82126489      0.85346719      -3.7731154
       41.760000     0.016505173 -6.6806451E-003      0.83505988      0.86799577      -3.7944761
       42.240000     0.017839843 -6.4353881E-003      0.84910306      0.88274335      -3.8108805
       42.720000     0.019267201 -6.1568457E-003      0.86340700      0.89771702      -3.8219189
       43.200000     0.020792466 -5.8418510E-003      0.87798519      0.91292417      -3.8271503
       43.680000     0.022420428 -5.4869169E-003      0.89285204      0.92837250      -3.8260997
       44.160000     0.024155112 -5.0881981E-003      0.90802301      0.94407001      -3.8182547
       44.640000     0.025999282 -4.6414482E-003      0.92351470      0.96002503      -3.8030605
       45.120000     0.027953775 -4.1419702E-003      0.93934497      0.97624625      -3.7799159
       45.600000     0.030016561 -3.5845595E-003      0.95553307      0.99274273      -3.7481667
       46.080000     0.032181438 -2.9634377E-003      0.97209984       1.0095239      -3.7070993
       46.560000     0.034436228 -2.2721751E-003      0.98906783       1.0265996      -3.6559315
       47.040000     0.036760272 -1.5035998E-003       1.0064616       1.0439801      -3.5938026
       47.520000     0.039120929 -6.4968906E-004       1.0243078       1.0616763      -3.5197601
       48.000000     0.041468696  2.9856114E-004       1.0426359       1.0796992      -3.4327434

Table series: Data for wavelength : 0.656273 µm.
   Y Angle (deg)       Tan Shift       Sag Shift     Real Height     Ref. Height      Distortion
  --------------  --------------  --------------  --------------  --------------  --------------
      0.00000000 -3.6497651E-003 -3.6497651E-003      0.00000000      0.00000000      0.00000000
      0.48000000 -3.6495475E-003 -3.6508015E-003  8.1488464E-003  8.1489060E-003 -7.3070239E-004
      0.96000000 -3.6478576E-003 -3.6539103E-003     0.016298480     0.016298956 -2.9229434E-003
       1.4400000 -3.6446918E-003 -3.6590908E-003     0.024449687     0.024451295 -6.5760235E-003
       1.9200000 -3.6400435E-003 -3.6663415E-003     0.032603256     0.032607068    -0.011688959
       2.4000000 -3.6339036E-003 -3.6756604E-003     0.040759979     0.040767423    -0.018260369
       2.8800000 -3.6262604E-003 -3.6870451E-003     0.048920647     0.048933511    -0.026288474
       3.3600000 -3.6170992E-003 -3.7004923E-003     0.057086058     0.057106486    -0.035771092
       3.8400000 -3.6064029E-003 -3.7159984E-003     0.065257011     0.065287504    -0.046705632
       4.3200000 -3.5941513E-003 -3.7335589E-003     0.073434311     0.073477729    -0.059089092
       4.8000000 -3.5803213E-003 -3.7531688E-003     0.081618768     0.081678326    -0.072918049
       5.2800000 -3.5648871E-003 -3.7748223E-003     0.089811197     0.089890470    -0.088188655
       5.7600000 -3.5478197E-003 -3.7985131E-003     0.098012421     0.098115340     -0.10489663
       6.2400000 -3.5290871E-003 -3.8242340E-003      0.10622327      0.10635412     -0.12303724
       6.7200000 -3.5086540E-003 -3.8519769E-003      0.11444458      0.11460801     -0.14260531
       7.2000000 -3.4864820E-003 -3.8817331E-003      0.12267719      0.12287822     -0.16359519
       7.6800000 -3.4625291E-003 -3.9134928E-003      0.13092197      0.13116594     -0.18600077
       8.1600000 -3.4367499E-003 -3.9472455E-003      0.13917978      0.13947242     -0.20981544
       8.6400000 -3.4090952E-003 -3.9829796E-003      0.14745150      0.14779887     -0.23503208
       9.1200000 -3.3795122E-003 -4.0206824E-003      0.15573801      0.15614655     -0.26164305
       9.6000000 -3.3479439E-003 -4.0603401E-003      0.16404021      0.16451672     -0.28964020
       10.080000 -3.3143292E-003 -4.1019379E-003      0.17235903      0.17291064     -0.31901479
       10.560000 -3.2786029E-003 -4.1454594E-003      0.18069538      0.18132960     -0.34975755
       11.040000 -3.2406950E-003 -4.1908872E-003      0.18905022      0.18977489     -0.38185857
       11.520000 -3.2005309E-003 -4.2382022E-003      0.19742451      0.19824785     -0.41530737
       12.000000 -3.1580307E-003 -4.2873839E-003      0.20581922      0.20674978     -0.45009281
       12.480000 -3.1131096E-003 -4.3384102E-003      0.21423534      0.21528205     -0.48620309
       12.960000 -3.0656770E-003 -4.3912571E-003      0.22267391      0.22384602     -0.52362571
       13.440000 -3.0156363E-003 -4.4458987E-003      0.23113594      0.23244308     -0.56234748
       13.920000 -2.9628852E-003 -4.5023073E-003      0.23962250      0.24107463     -0.60235444
       14.400000 -2.9073145E-003 -4.5604529E-003      0.24813468      0.24974210     -0.64363186
       14.880000 -2.8488080E-003 -4.6203033E-003      0.25667356      0.25844693     -0.68616421
       15.360000 -2.7872425E-003 -4.6818236E-003      0.26524029      0.26719061     -0.72993507
       15.840000 -2.7224866E-003 -4.7449765E-003      0.27383603      0.27597463     -0.77492719
       16.320000 -2.6544007E-003 -4.8097219E-003      0.28246194      0.28480050     -0.82112234
       16.800000 -2.5828367E-003 -4.8760164E-003      0.29111926      0.29366978     -0.86850135
       17.280000 -2.5076368E-003 -4.9438135E-003      0.29980922      0.30258404     -0.91704402
       17.760000 -2.4286332E-003 -5.0130634E-003      0.30853310      0.31154489     -0.96672908
       18.240000 -2.3456475E-003 -5.0837122E-003      0.31729221      0.32055396      -1.0175342
       18.720000 -2.2584900E-003 -5.1557022E-003      0.32608791      0.32961291      -1.0694357
       19.200000 -2.1669587E-003 -5.2289714E-003      0.33492159      0.33872345      -1.1224089
       19.680000 -2.0708386E-003 -5.3034532E-003      0.34379465      0.34788730      -1.1764277
       20.160000 -1.9699009E-003 -5.3790758E-003      0.35270859      0.35710623      -1.2314646
       20.640000 -1.8639016E-003 -5.4557625E-003      0.36166491      0.36638205      -1.2874908
       21.120000 -1.7525810E-003 -5.5334306E-003      0.37066517      0.37571659      -1.3444758
       21.600000 -1.6356620E-003 -5.6119912E-003      0.37971099      0.38511175      -1.4023878
       22.080000 -1.5128492E-003 -5.6913490E-003      0.38880402      0.39456944      -1.4611931
       22.560000 -1.3838272E-003 -5.7714016E-003      0.39794598      0.40409163      -1.5208562
       23.040000 -1.2482596E-003 -5.8520388E-003      0.40713865      0.41368034      -1.5813399
       23.520000 -1.1057868E-003 -5.9331422E-003      0.41638386      0.42333763      -1.6426050
       24.000000 -9.5602442E-004 -6.0145849E-003      0.42568351      0.43306559      -1.7046103
       24.480000 -7.9856172E-004 -6.0962302E-003      0.43503957      0.44286640      -1.7673122
       24.960000 -6.3295902E-004 -6.1779311E-003      0.44445407      0.45274227      -1.8306650
       25.440000 -4.5874573E-004 -6.2595299E-003      0.45392913      0.46269545      -1.8946204
       25.920000 -2.7541772E-004 -6.3408567E-003      0.46346694      0.47272829      -1.9591277
       26.400000 -8.2434722E-005 -6.4217290E-003      0.47306977      0.48284316      -2.0241334
       26.880000  1.2078264E-004 -6.5019503E-003      0.48273999      0.49304252      -2.0895810
       27.360000  3.3485624E-004 -6.5813095E-003      0.49248006      0.50332887      -2.1554110
       27.840000  5.6045351E-004 -6.6595790E-003      0.50229253      0.51370479      -2.2215608
       28.320000  7.9829178E-004 -6.7365141E-003      0.51218005      0.52417294      -2.2879641
       28.800000  1.0491418E-003 -6.8118511E-003      0.52214541      0.53473604      -2.3545513
       29.280000  1.3138330E-003 -6.8853060E-003      0.53219148      0.54539689      -2.4212485
       29.760000  1.5932577E-003 -6.9565729E-003      0.54232128      0.55615838      -2.4879780
       30.240000  1.8883774E-003 -7.0253220E-003      0.55253795      0.56702346      -2.5546576
       30.720000  2.2002262E-003 -7.0911975E-003      0.56284477      0.57799519      -2.6212006
       31.200000  2.5299203E-003 -7.1538158E-003      0.57324518      0.58907670      -2.6875150
       31.680000  2.8786629E-003 -7.2127629E-003      0.58374275      0.60027124      -2.7535039
       32.160000  3.2477523E-003 -7.2675916E-003      0.59434124      0.61158214      -2.8190647
       32.640000  3.6385891E-003 -7.3178189E-003      0.60504458      0.62301283      -2.8840887
       33.120000  4.0526856E-003 -7.3629231E-003      0.61585690      0.63456685      -2.9484610
       33.600000  4.4916744E-003 -7.4023397E-003      0.62678250      0.64624787      -3.0120596
       34.080000  4.9573188E-003 -7.4354581E-003      0.63782593      0.65805966      -3.0747557
       34.560000  5.4515224E-003 -7.4616176E-003      0.64899195      0.67000610      -3.1364123
       35.040000  5.9763418E-003 -7.4801022E-003      0.66028556      0.68209123      -3.1968843
       35.520000  6.5339960E-003 -7.4901361E-003      0.67171204      0.69431920      -3.2560176
       36.000000  7.1268796E-003 -7.4908781E-003      0.68327692      0.70669429      -3.3136489
       36.480000  7.7575744E-003 -7.4814151E-003      0.69498606      0.71922096      -3.3696042
       36.960000  8.4288616E-003 -7.4607559E-003      0.70684561      0.73190379      -3.4236989
       37.440000  9.1437332E-003 -7.4278230E-003      0.71886208      0.74474754      -3.4757365
       37.920000  9.9054020E-003 -7.3814451E-003      0.73104235      0.75775713      -3.5255079
       38.400000     0.010717311 -7.3203468E-003      0.74339367      0.77093766      -3.5727904
       38.880000     0.011583137 -7.2431396E-003      0.75592374      0.78429439      -3.6173465
       39.360000     0.012506794 -7.1483096E-003      0.76864072      0.79783280      -3.6589229
       39.840000     0.013492428 -7.0342049E-003      0.78155323      0.81155857      -3.6972491
       40.320000     0.014544401 -6.8990219E-003      0.79467046      0.82547758      -3.7320363
       40.800000     0.015667263 -6.7407889E-003      0.80800214      0.83959593      -3.7629752
       41.280000     0.016865712 -6.5573488E-003      0.82155866      0.85391996      -3.7897348
       41.760000     0.018144519 -6.3463391E-003      0.83535105      0.86845625      -3.8119602
       42.240000     0.019508432 -6.1051692E-003      0.84939109      0.88321165      -3.8292704
       42.720000     0.020962021 -5.8309957E-003      0.86369137      0.89819327      -3.8412557
       43.200000     0.022509477 -5.5206936E-003      0.87826532      0.91340849      -3.8474752
       43.680000     0.024154310 -5.1708241E-003      0.89312737      0.92886501      -3.8474527
       44.160000     0.025898947 -4.7775981E-003      0.90829296      0.94457085      -3.8406739
       44.640000     0.027744165 -4.3368339E-003      0.92377871      0.96053433      -3.8265812
       45.120000     0.029688310 -3.8439095E-003      0.93960250      0.97676416      -3.8045685
       45.600000     0.031726229 -3.2937069E-003      0.95578364      0.99326939      -3.7739754
       46.080000     0.033847791 -2.6805478E-003      0.97234304       1.0100595      -3.7340788
       46.560000     0.036035850 -1.9981184E-003      0.98930336       1.0271442      -3.6840846
       47.040000     0.038263435 -1.2393803E-003       1.0066893       1.0445340      -3.6231155
       47.520000     0.040489844 -3.9646522E-004       1.0245279       1.0622395      -3.5501975
       48.000000     0.042655200  5.3945306E-004       1.0428487       1.0802720      -3.4642415
