Results for:	
File:	C:\Users\User\OneDrive - Massachusetts Institute of Technology\Documents\MIT\Grad School\Classes\2.156\Lens Project\Prime Lenses\US8558939.zmx
Title:	U.S.Patent 8558939
Date:	11/7/2025 5:54:53 PM

0 message(s) in output.
3 series table(s) in output.

Table series: Data for wavelength : 0.486100 µm.
   Y Angle (deg)       Tan Shift       Sag Shift     Real Height     Ref. Height      Distortion
  --------------  --------------  --------------  --------------  --------------  --------------
      0.00000000    -0.042630170    -0.042630170      0.00000000      0.00000000      0.00000000
      0.30765007    -0.042612685    -0.042630465     0.020137020     0.020136885  6.7058723E-004
      0.61530014    -0.042559931    -0.042631398     0.040276011     0.040274932  2.6801192E-003
      0.92295021    -0.042473111    -0.042633117     0.060418939     0.060415301  6.0219088E-003
       1.2306003    -0.042354194    -0.042635863     0.080567763     0.080559155     0.010684886
       1.5382504    -0.042205882    -0.042639968      0.10072443      0.10070766     0.016653702
       1.8459004    -0.042031548    -0.042645847      0.12089087      0.12086197     0.023908870
       2.1535505    -0.041835171    -0.042653989      0.14106899      0.14102326     0.032426951
       2.4612006    -0.041621259    -0.042664947      0.16126068      0.16119269     0.042180761
       2.7688506    -0.041394753    -0.042679330      0.18146782      0.18137144     0.053139611
       3.0765007    -0.041160933    -0.042697784      0.20169222      0.20156067     0.065269573
       3.3841508    -0.040925308    -0.042720986      0.22193571      0.22176155     0.078533752
       3.6918008    -0.040693516    -0.042749623      0.24220005      0.24197527     0.092892577
       3.9994509    -0.040471204    -0.042784384      0.26248697      0.26220300      0.10830410
       4.3071010    -0.040263925    -0.042825939      0.28279820      0.28244592      0.12472428
       4.6147511    -0.040077026    -0.042874928      0.30313539      0.30270522      0.14210728
       4.9224011    -0.039915550    -0.042931947      0.32350017      0.32298209      0.16040574
       5.2300512    -0.039784134    -0.042997532      0.34389415      0.34327773      0.17957103
       5.5377013    -0.039686928    -0.043072146      0.36431888      0.36359332      0.19955348
       5.8453513    -0.039627511    -0.043156169      0.38477589      0.38393008      0.22030262
       6.1530014    -0.039608829    -0.043249883      0.40526665      0.40428921      0.24176732
       6.4606515    -0.039633137    -0.043353467      0.42579261      0.42467192      0.26389597
       6.7683016    -0.039701957    -0.043466982      0.44635520      0.44507943      0.28663657
       7.0759516    -0.039816050    -0.043590370      0.46695577      0.46551298      0.30993682
       7.3836017    -0.039975397    -0.043723444      0.48759569      0.48597378      0.33374416
       7.6912518    -0.040179198    -0.043865884      0.50827624      0.50646307      0.35800576
       7.9989018    -0.040425879    -0.044017237      0.52899869      0.52698210      0.38266850
       8.3065519    -0.040713114    -0.044176914      0.54976429      0.54753212      0.40767885
       8.6142020    -0.041037856    -0.044344191      0.57057422      0.56811438      0.43298283
       8.9218520    -0.041396382    -0.044518208      0.59142964      0.58873016      0.45852577
       9.2295021    -0.041784342    -0.044697980      0.61233166      0.60938072      0.48425224
       9.5371522    -0.042196820    -0.044882392      0.63328136      0.63006735      0.51010573
       9.8448023    -0.042628401    -0.045070215      0.65427977      0.65079134      0.53602850
       10.152452    -0.043073246    -0.045260106      0.67532786      0.67155398      0.56196125
       10.460102    -0.043525166    -0.045450622      0.69642656      0.69235659      0.58784291
       10.767752    -0.043977710    -0.045640227      0.71757676      0.71320049      0.61361026
       11.075403    -0.044424245    -0.045827305      0.73877927      0.73408700      0.63919770
       11.383053    -0.044858046    -0.046010173      0.76003483      0.75501746      0.66453687
       11.690703    -0.045272384    -0.046187091      0.78134414      0.77599323      0.68955639
       11.998353    -0.045660611    -0.046356281      0.80270780      0.79701566      0.71418148
       12.306003    -0.046016253    -0.046515937      0.82412633      0.81808612      0.73833372
       12.613653    -0.046333092    -0.046664245      0.84560017      0.83920600      0.76193072
       12.921303    -0.046605251    -0.046799400      0.86712968      0.86037670      0.78488590
       13.228953    -0.046827280    -0.046919618      0.88871509      0.88159963      0.80710824
       13.536603    -0.046994229    -0.047023161      0.91035654      0.90287620      0.82850211
       13.844253    -0.047101724    -0.047108352      0.93205407      0.92420785      0.84896714
       14.151903    -0.047146040    -0.047173596      0.95380757      0.94559603      0.86839818
       14.459553    -0.047124160    -0.047217398      0.97561682      0.96704220      0.88668531
       14.767203    -0.047033836    -0.047238386      0.99748150      0.98854785      0.90371398
       15.074853    -0.046873639    -0.047235333       1.0194011       1.0101145      0.91936525
       15.382504    -0.046642998    -0.047207175       1.0413750       1.0317435      0.93351612
       15.690154    -0.046342238    -0.047153035       1.0634026       1.0534366      0.94604008
       15.997804    -0.045972601    -0.047072247       1.0854828       1.0751953      0.95680777
       16.305454    -0.045536256    -0.046964377       1.1076148       1.0970210      0.96568786
       16.613104    -0.045036300    -0.046829248       1.1297974       1.1189154      0.97254811
       16.920754    -0.044476748    -0.046666959       1.1520294       1.1408800      0.97725669
       17.228404    -0.043862502    -0.046477914       1.1743095       1.1629166      0.97968367
       17.536054    -0.043199319    -0.046262841       1.1966363       1.1850266      0.97970287
       17.843704    -0.042493754    -0.046022815       1.2190086       1.2072118      0.97719385
       18.151354    -0.041753103    -0.045759283       1.2414249       1.2294738      0.97204424
       18.459004    -0.040985322    -0.045474082       1.2638838       1.2518144      0.96415226
       18.766654    -0.040198951    -0.045169459       1.2863841       1.2742351      0.95342956
       19.074304    -0.039403027    -0.044848090       1.3089247       1.2967379      0.93980414
       19.381954    -0.038606988    -0.044513096       1.3315046       1.3193243      0.92322354
       19.689605    -0.037820584    -0.044168052       1.3541233       1.3419963      0.90365801
       19.997255    -0.037053795    -0.043817001       1.3767804       1.3647555      0.88110381
       20.304905    -0.036316744    -0.043464452       1.3994760       1.3876039      0.85558637
       20.612555    -0.035619629    -0.043115381       1.4222107       1.4105432      0.82716332
       20.920205    -0.034972660    -0.042775222       1.4449856       1.4335754      0.79592716
       21.227855    -0.034386007    -0.042449851       1.4678025       1.4567023      0.76200766
       21.535505    -0.033869759    -0.042145556       1.4906638       1.4799259      0.72557363
       21.843155    -0.033433878    -0.041869006       1.5135729       1.5032481      0.68683410
       22.150805    -0.033088159    -0.041627200       1.5365338       1.5266709      0.64603880
       22.458455    -0.032842168    -0.041427408       1.5595515       1.5501964      0.60347777
       22.766105    -0.032705160    -0.041277098       1.5826318       1.5738265      0.55948022
       23.073755    -0.032685959    -0.041183856       1.6057814       1.5975634      0.51441241
       23.381405    -0.032792772    -0.041155279       1.6290082       1.6214091      0.46867474
       23.689055    -0.033032953    -0.041198875       1.6523207       1.6453658      0.42269806
       23.996706    -0.033412662    -0.041321937       1.6757283       1.6694356      0.37693920
       24.304356    -0.033936437    -0.041531419       1.6992415       1.6936207      0.33187605
       24.612006    -0.034606662    -0.041833799       1.7228711       1.7179235      0.28800204
       24.919656    -0.035422916    -0.042234942       1.7466291       1.7423461      0.24582048
       25.227306    -0.036381227    -0.042739970       1.7705278       1.7668908      0.20583873
       25.534956    -0.037473235    -0.043353124       1.7945800       1.7915601      0.16856226
       25.842606    -0.038685295    -0.044077649       1.8187991       1.8163563      0.13448900
       26.150256    -0.039997565    -0.044915684       1.8431986       1.8412817      0.10410358
       26.457906    -0.041383145    -0.045868178       1.8677923       1.8663389     0.077871842
       26.765556    -0.042807357    -0.046934824       1.8925942       1.8915305     0.056235137
       27.073206    -0.044227286    -0.048114031       1.9176179       1.9168588     0.039604330
       27.380856    -0.045591735    -0.049402929       1.9428772       1.9423265     0.028353021
       27.688506    -0.046841817    -0.050797416       1.9683852       1.9679363     0.022809361
       27.996156    -0.047912447    -0.052292271       1.9941543       1.9936908     0.023245643
       28.303806    -0.048735100    -0.053881316       2.0201960       2.0195928     0.029864520
       28.611457    -0.049242315    -0.055557678       2.0465202       2.0456450     0.042780379
       28.919107    -0.049374553    -0.057314144       2.0731347       2.0718503     0.061993956
       29.226757    -0.049090159    -0.059143655       2.1000445       2.0982115     0.087357751
       29.534407    -0.048379357    -0.061039960       2.1272500       2.1247316      0.11852916
       29.842057    -0.047283121    -0.062998505       2.1547462       2.1514135      0.15490752
       30.149707    -0.045917478    -0.065017597       2.1825200       2.1782604      0.19555074
       30.457357    -0.044502456    -0.067099948       2.2105473       2.2052752      0.23906677
       30.765007    -0.043391678    -0.069254689       2.2387896       2.2324611      0.28347647

Table series: Data for wavelength : 0.587600 µm.
   Y Angle (deg)       Tan Shift       Sag Shift     Real Height     Ref. Height      Distortion
  --------------  --------------  --------------  --------------  --------------  --------------
      0.00000000 -8.0251720E-003 -8.0251720E-003      0.00000000      0.00000000      0.00000000
      0.30765007 -8.0060073E-003 -8.0251654E-003     0.020147024     0.020146892  6.5306161E-004
      0.61530014 -7.9486238E-003 -8.0251976E-003     0.040295998     0.040294946  2.6100525E-003
      0.92295021 -7.8542690E-003 -8.0254231E-003     0.060448869     0.060445324  5.8643956E-003
       1.2306003 -7.7249874E-003 -8.0260961E-003     0.080607575     0.080599189     0.010405203
       1.5382504 -7.5635799E-003 -8.0275652E-003      0.10077404      0.10075770     0.016217381
       1.8459004 -7.3735463E-003 -8.0302666E-003      0.12095018      0.12092203     0.023281770
       2.1535505 -7.1590157E-003 -8.0347150E-003      0.14113789      0.14109334     0.031575328
       2.4612006 -6.9246631E-003 -8.0414934E-003      0.16133903      0.16127280     0.041071341
       2.7688506 -6.6756162E-003 -8.0512412E-003      0.18155546      0.18146157     0.051739659
       3.0765007 -6.4173532E-003 -8.0646411E-003      0.20178898      0.20166083     0.063546963
       3.3841508 -6.1555947E-003 -8.0824054E-003      0.22204139      0.22187175     0.076457032
       3.6918008 -5.8961910E-003 -8.1052609E-003      0.24231445      0.24209552     0.090431041
       3.9994509 -5.6450083E-003 -8.1339340E-003      0.26260987      0.26233330      0.10542785
       4.3071010 -5.4078146E-003 -8.1691353E-003      0.28292935      0.28258628      0.12140430
       4.6147511 -5.1901691E-003 -8.2115444E-003      0.30327455      0.30285565      0.13831548
       4.9224011 -4.9973161E-003 -8.2617945E-003      0.32364707      0.32314260      0.15611505
       5.2300512 -4.8340864E-003 -8.3204583E-003      0.34404851      0.34344832      0.17475543
       5.5377013 -4.7048064E-003 -8.3880342E-003      0.36448041      0.36377401      0.19418810
       5.8453513 -4.6132184E-003 -8.4649335E-003      0.38494429      0.38412087      0.21436376
       6.1530014 -4.5624113E-003 -8.5514684E-003      0.40544161      0.40449012      0.23523254
       6.4606515 -4.5547649E-003 -8.6478419E-003      0.42597382      0.42488296      0.25674415
       6.7683016 -4.5919059E-003 -8.7541387E-003      0.44654233      0.44530062      0.27884795
       7.0759516 -4.6746786E-003 -8.8703176E-003      0.46714850      0.46574431      0.30149310
       7.3836017 -4.8031279E-003 -8.9962051E-003      0.48779367      0.48621528      0.32462854
       7.6912518 -4.9764969E-003 -9.1314916E-003      0.50847915      0.50671475      0.34820299
       7.9989018 -5.1932363E-003 -9.2757281E-003      0.52920620      0.52724398      0.37216497
       8.3065519 -5.4510275E-003 -9.4283251E-003      0.54997605      0.54780421      0.39646265
       8.6142020 -5.7468158E-003 -9.5885534E-003      0.57078990      0.56839671      0.42104382
       8.9218520 -6.0768556E-003 -9.7555453E-003      0.59164892      0.58902273      0.44585567
       9.2295021 -6.4367641E-003 -9.9282992E-003      0.61255421      0.60968355      0.47084464
       9.5371522 -6.8215846E-003    -0.010105684      0.63350687      0.63038046      0.49595626
       9.8448023 -7.2258565E-003    -0.010286445      0.65450793      0.65111475      0.52113483
       10.152452 -7.6436914E-003    -0.010469214      0.67555839      0.67188771      0.54632323
       10.460102 -8.0688548E-003    -0.010652516      0.69665918      0.69270066      0.57146259
       10.767752 -8.4948513E-003    -0.010834781      0.71781121      0.71355491      0.59649205
       11.075403 -8.9150136E-003    -0.011014353      0.73901531      0.73445180      0.62134840
       11.383053 -9.3225914E-003    -0.011189508      0.76027225      0.75539267      0.64596580
       11.690703 -9.7108436E-003    -0.011358461      0.78158273      0.77637886      0.67027544
       11.998353    -0.010073129    -0.011519386      0.80294741      0.79741173      0.69420524
       12.306003    -0.010402997    -0.011670428      0.82436682      0.81849267      0.71767954
       12.613653    -0.010694274    -0.011809720      0.84584145      0.83962304      0.74061884
       12.921303    -0.010941155    -0.011935402      0.86737168      0.86080426      0.76293948
       13.228953    -0.011138278    -0.012045635      0.88895779      0.88203773      0.78455347
       13.536603    -0.011280814    -0.012138623      0.91059997      0.90332488      0.80536829
       13.844253    -0.011364530    -0.012212630      0.93229828      0.92466713      0.82528673
       14.151903    -0.011385865    -0.012265999      0.95405269      0.94606594      0.84420686
       14.459553    -0.011341990    -0.012297176      0.97586303      0.96752277      0.86202203
       14.767203    -0.011230860    -0.012304726      0.99772901      0.98903911      0.87862099
       15.074853    -0.011051262    -0.012287358       1.0196502       1.0106164      0.89388807
       15.382504    -0.010802851    -0.012243944       1.0416261       1.0322563      0.90770358
       15.690154    -0.010486173    -0.012173543       1.0636560       1.0539601      0.91994426
       15.997804    -0.010102679    -0.012075423       1.0857391       1.0757296      0.93048395
       16.305454 -9.6547261E-003    -0.011949083       1.1078744       1.0975661      0.93919440
       16.613104 -9.1455610E-003    -0.011794279       1.1300610       1.1194714      0.94594637
       16.920754 -8.5792939E-003    -0.011611043       1.1522977       1.1414470      0.95061083
       17.228404 -7.9608545E-003    -0.011399708       1.1745833       1.1634945      0.95306048
       17.536054 -7.2959333E-003    -0.011160932       1.1969164       1.1856155      0.95317151
       17.843704 -6.5909103E-003    -0.010895721       1.2192959       1.2078117      0.95082556
       18.151354 -5.8527695E-003    -0.010605447       1.2417203       1.2300848      0.94591203
       18.459004 -5.0890033E-003    -0.010291873       1.2641884       1.2524365      0.93833051
       18.766654 -4.3075085E-003 -9.9571715E-003       1.2866991       1.2748684      0.92799358
       19.074304 -3.5164770E-003 -9.6039421E-003       1.3092511       1.2973823      0.91482969
       19.381954 -2.7242860E-003 -9.2352268E-003       1.3318438       1.3199800      0.89878629
       19.689605 -1.9393906E-003 -8.8545225E-003       1.3544764       1.3426632      0.87983295
       19.997255 -1.1702244E-003 -8.4657899E-003       1.3771486       1.3654337      0.85796461
       20.304905 -4.2511042E-004 -8.0734566E-003       1.3998607       1.3882934      0.83320469
       20.612555  2.8781340E-004 -7.6824160E-003       1.4226132       1.4112441      0.80560806
       20.920205  9.6065264E-004 -7.2980173E-003       1.4454073       1.4342878      0.77526375
       21.227855  1.5857991E-003 -6.9260495E-003       1.4682446       1.4574262      0.74229724
       21.535505  2.1559594E-003 -6.5727148E-003       1.4911277       1.4806613      0.70687224
       21.843155  2.6641749E-003 -6.2445922E-003       1.5140597       1.5039951      0.66919191
       22.150805  3.1038399E-003 -5.9485896E-003       1.5370448       1.5274296      0.62949932
       22.458455  3.4687286E-003 -5.6918834E-003       1.5600876       1.5509668      0.58807708
       22.766105  3.7530447E-003 -5.4818457E-003       1.5831941       1.5746086      0.54524629
       23.073755  3.9515077E-003 -5.3259582E-003       1.6063709       1.5983573      0.50136443
       23.381405  4.0594933E-003 -5.2317133E-003       1.6296255       1.6222148      0.45682262
       23.689055  4.0732451E-003 -5.2065028E-003       1.6529664       1.6461834      0.41204193
       23.996706  3.9901742E-003 -5.2574973E-003       1.6764029       1.6702652      0.36746915
       24.304356  3.8092599E-003 -5.3915153E-003       1.6999452       1.6944624      0.32357189
       24.612006  3.5315627E-003 -5.6148872E-003       1.7236041       1.7187772      0.28083330
       24.919656  3.1608536E-003 -5.9333164E-003       1.7473912       1.7432119      0.23974657
       25.227306  2.7043549E-003 -6.3517411E-003       1.7713187       1.7677689      0.20080920
       25.534956  2.1735782E-003 -6.8742005E-003       1.7953993       1.7924504      0.16451738
       25.842606  1.5852312E-003 -7.5037111E-003       1.8196460       1.8172589      0.13136039
       26.150256  9.6214747E-004 -8.2421568E-003       1.8440724       1.8421967      0.10181522
       26.457906  3.3417268E-004 -9.0901977E-003       1.8686919       1.8672664     0.076341214
       26.765556 -2.6108502E-004    -0.010047204       1.8935184       1.8924704     0.055374683
       27.073206 -7.7776669E-004    -0.011111219       1.9185655       1.9178114     0.039323256
       27.380856 -1.1617038E-003    -0.012278961       1.9438468       1.9432918     0.028559497
       27.688506 -1.3510120E-003    -0.013545867       1.9693753       1.9689143     0.023413248
       27.996156 -1.2776310E-003    -0.014906190       1.9951636       1.9946816     0.024161899
       28.303806 -8.7020114E-004    -0.016353167       2.0212232       2.0205965     0.031017503
       28.611457 -5.8786199E-005    -0.017879261       2.0475644       2.0466616     0.044109368
       28.919107  1.2178935E-003    -0.019476513       2.0741954       2.0728799     0.063460310
       29.226757  3.0018877E-003    -0.021137016       2.1011216       2.0992542     0.088954289
       29.534407  5.3011256E-003    -0.022853565       2.1283446       2.1257875      0.12029255
       29.842057  8.0692185E-003    -0.024620520       2.1558607       2.1524827      0.15693479
       30.149707     0.011179344    -0.026434948       2.1836584       2.1793428      0.19802117
       30.457357     0.014392907    -0.028298129       2.2117165       2.2063711      0.24227118
       30.765007     0.017327041    -0.030217525       2.2400000       2.2335705      0.28785581

Table series: Data for wavelength : 0.656300 µm.
   Y Angle (deg)       Tan Shift       Sag Shift     Real Height     Ref. Height      Distortion
  --------------  --------------  --------------  --------------  --------------  --------------
      0.00000000  7.9461299E-003  7.9461299E-003      0.00000000      0.00000000      0.00000000
      0.30765007  7.9659844E-003  7.9462500E-003     0.020151196     0.020151066  6.4512156E-004
      0.61530014  8.0252494E-003  7.9465574E-003     0.040304332     0.040303293  2.5783093E-003
      0.92295021  8.1226576E-003  7.9468941E-003     0.060461347     0.060457845  5.7930381E-003
       1.2306003  8.2561316E-003  7.9470005E-003     0.080624170     0.080615884     0.010278507
       1.5382504  8.4228261E-003  7.9465206E-003      0.10079472      0.10077857     0.016019740
       1.8459004  8.6191851E-003  7.9450088E-003      0.12097489      0.12094708     0.022997735
       2.1535505  8.8410139E-003  7.9419394E-003      0.14116658      0.14112257     0.031189637
       2.4612006  9.0835629E-003  7.9367166E-003      0.16137164      0.16130620     0.040568953
       2.7688506  9.3416225E-003  7.9286871E-003      0.18159191      0.18149916     0.051105787
       3.0765007  9.6096268E-003  7.9171530E-003      0.20182921      0.20170260     0.062767104
       3.3841508  9.8817636E-003  7.9013861E-003      0.22208530      0.22191771     0.075517003
       3.6918008     0.010152088  7.8806430E-003      0.24236194      0.24214567     0.089317008
       3.9994509     0.010414640  7.8541805E-003      0.26266085      0.26238764      0.10412636
       4.3071010     0.010663558  7.8212710E-003      0.28298371      0.28264482      0.11990229
       4.6147511     0.010893190  7.7812186E-003      0.30333217      0.30291838      0.13660036
       4.9224011     0.011098205  7.7333736E-003      0.32370784      0.32320953      0.15417467
       5.2300512     0.011273692  7.6771481E-003      0.34411230      0.34351946      0.17257815
       5.5377013     0.011415247  7.6120293E-003      0.36454709      0.36384936      0.19176279
       5.8453513     0.011519063  7.5375928E-003      0.38501371      0.38420044      0.21167985
       6.1530014     0.011581989  7.4535147E-003      0.40551365      0.40457390      0.23228004
       6.4606515     0.011601597  7.3595818E-003      0.42604833      0.42497097      0.25351367
       6.7683016     0.011576219  7.2557012E-003      0.44661916      0.44539286      0.27533075
       7.0759516     0.011504979  7.1419076E-003      0.46722751      0.46584079      0.29768107
       7.3836017     0.011387811  7.0183701E-003      0.48787471      0.48631599      0.32051428
       7.6912518     0.011225458  6.8853959E-003      0.50856206      0.50681972      0.34377982
       7.9989018     0.011019464  6.7434340E-003      0.52929083      0.52735320      0.36742694
       8.3065519     0.010772153  6.5930755E-003      0.55006226      0.54791769      0.39140461
       8.6142020     0.010486588  6.4350542E-003      0.57087754      0.56851444      0.41566141
       8.9218520     0.010166531  6.2702436E-003      0.59173783      0.58914474      0.44014535
       9.2295021  9.8163860E-003  6.0996541E-003      0.61264426      0.60980984      0.46480379
       9.5371522  9.4411325E-003  5.9244271E-003      0.63359792      0.63051104      0.48958311
       9.8448023  9.0462573E-003  5.7458293E-003      0.65459983      0.65124962      0.51442858
       10.152452  8.6376746E-003  5.5652440E-003      0.67565102      0.67202689      0.53928403
       10.460102  8.2216437E-003  5.3841621E-003      0.69675242      0.69284415      0.56409164
       10.767752  7.8046820E-003  5.2041720E-003      0.71790494      0.71370272      0.58879156
       11.075403  7.3934749E-003  5.0269474E-003      0.73910942      0.73460394      0.61332168
       11.383053  6.9947847E-003  4.8542349E-003      0.76036665      0.75554914      0.63761729
       11.690703  6.6153574E-003  4.6878402E-003      0.78167735      0.77653968      0.66161075
       11.998353  6.2618307E-003  4.5296136E-003      0.80304216      0.79757691      0.68523118
       12.306003  5.9406423E-003  4.3814341E-003      0.82446165      0.81866221      0.70840418
       12.613653  5.6579405E-003  4.2451936E-003      0.84593631      0.83979697      0.73105152
       12.921303  5.4194967E-003  4.1227793E-003      0.86746655      0.86098257      0.75309087
       13.228953  5.2306223E-003  4.0160560E-003      0.88905267      0.88222044      0.77443559
       13.536603  5.0960893E-003  3.9268477E-003      0.91069486      0.90351199      0.79499456
       13.844253  5.0200565E-003  3.8569182E-003      0.93239323      0.92485867      0.81467199
       14.151903  5.0060012E-003  3.8079519E-003      0.95414775      0.94626191      0.83336738
       14.459553  5.0566587E-003  3.7815326E-003      0.97595827      0.96772319      0.85097556
       14.767203  5.1739701E-003  3.7791236E-003      0.99782455      0.98924398      0.86738674
       15.074853  5.3590384E-003  3.8020457E-003       1.0197462       1.0108258      0.88248674
       15.382504  5.6120965E-003  3.8514558E-003       1.0417227       1.0324701      0.89615733
       15.690154  5.9324857E-003  3.9283245E-003       1.0637533       1.0541785      0.90827672
       15.997804  6.3186476E-003  4.0334135E-003       1.0858374       1.0759524      0.91872016
       16.305454  6.7681304E-003  4.1672533E-003       1.1079740       1.0977935      0.92736083
       16.613104  7.2776086E-003  4.3301195E-003       1.1301621       1.1197033      0.93407079
       16.920754  7.8429201E-003  4.5220102E-003       1.1524007       1.1416834      0.93872230
       17.228404  8.4591172E-003  4.7426224E-003       1.1746884       1.1637355      0.94118924
       17.536054  9.1205346E-003  4.9913298E-003       1.1970242       1.1858611      0.94134887
       17.843704  9.8208711E-003  5.2671597E-003       1.2194066       1.2080619      0.93908379
       18.151354     0.010553285  5.5687712E-003       1.2418345       1.2303396      0.93428419
       18.459004     0.011310502  5.8944346E-003       1.2643065       1.2526959      0.92685031
       18.766654     0.012084927  6.2420116E-003       1.2868215       1.2751324      0.91669518
       19.074304     0.012868764  6.6089373E-003       1.3093785       1.2976510      0.90374750
       19.381954     0.013654138  6.9922054E-003       1.3319766       1.3202534      0.88795470
       19.689605     0.014433205  7.3883555E-003       1.3546153       1.3429413      0.86928613
       19.997255     0.015198261  7.7934644E-003       1.3772942       1.3657165      0.84773618
       20.304905     0.015941833  8.2031431E-003       1.4000136       1.3885810      0.82332745
       20.612555     0.016656753  8.6125381E-003       1.4227739       1.4115365      0.79611370
       20.920205     0.017336219  9.0163408E-003       1.4455764       1.4345849      0.76618248
       21.227855     0.017973829  9.4088046E-003       1.4684228       1.4577281      0.73365748
       21.535505     0.018563602  9.7837705E-003       1.4913155       1.4809680      0.69870029
       21.843155     0.019099989     0.010134705       1.5142578       1.5043067      0.66151161
       22.150805     0.019577881     0.010454745       1.5372536       1.5277460      0.62233169
       22.458455     0.019992614     0.010736765       1.5603078       1.5512880      0.58144006
       22.766105     0.020340009     0.010973442       1.5834261       1.5749348      0.53915441
       23.073755     0.020616440     0.011157347       1.6066151       1.5986884      0.49582858
       23.381405     0.020818954     0.011281046       1.6298824       1.6225509      0.45184980
       23.689055     0.020945469     0.011337205       1.6532362       1.6465244      0.40763513
       23.996706     0.020995057     0.011318719       1.6766860       1.6706112      0.36362718
       24.304356     0.020968335     0.011218839       1.7002417       1.6948134      0.32028935
       24.612006     0.020867963     0.011031310       1.7239142       1.7191332      0.27810061
       24.919656     0.020699266     0.010750510       1.7477149       1.7435730      0.23755002
       25.227306     0.020470977     0.010371593       1.7716560       1.7681351      0.19913112
       25.534956     0.020196069  9.8906180E-003       1.7957500       1.7928217      0.16333640
       25.842606     0.019892672  9.3046797E-003       1.8200101       1.8176353      0.13065175
       26.150256     0.019585005  8.6120163E-003       1.8444495       1.8425783      0.10155120
       26.457906     0.019304282  7.8121036E-003       1.8690818       1.8676532     0.076491653
       26.765556     0.019089469  6.9057229E-003       1.8939207       1.8928625     0.055907637
       27.073206     0.018987790  5.8949994E-003       1.9189799       1.9182086     0.040205774
       27.380856     0.019054789  4.7834036E-003       1.9442727       1.9436943     0.029758579
       27.688506     0.019353738  3.5757095E-003       1.9698124       1.9693221     0.024897024
       27.996156     0.019954071  2.2778984E-003       1.9956115       1.9950948     0.025901087
       28.303806     0.020928459  8.9699786E-004       2.0216817       2.0210150     0.032987250
       28.611457     0.022347974 -5.5916077E-004       2.0480332       2.0470856     0.046291589
       28.919107     0.024274690 -2.0822865E-003       2.0746745       2.0733093     0.065846718
       29.226757     0.026750819 -3.6641024E-003       2.1016113       2.0996891     0.091550339
       29.534407     0.029783402 -5.2969864E-003       2.1288457       2.1262278      0.12312263
       29.842057     0.033323489 -6.9748271E-003       2.1563743       2.1529285      0.16004909
       30.149707     0.037239169 -8.6941588E-003       2.1841867       2.1797943      0.20150482
       30.457357     0.041283105    -0.010455655       2.2122626       2.2068281      0.24625630
       30.765007     0.045058657    -0.012266075       2.2405686       2.2340332      0.29253745
