Results for:	
File:	C:\Users\User\OneDrive - Massachusetts Institute of Technology\Documents\MIT\Grad School\Classes\2.156\Lens Project\Prime Lenses\US08988789-3.zmx
Title:	
Date:	11/7/2025 5:51:22 PM

0 message(s) in output.
3 series table(s) in output.

Table series: Data for wavelength : 0.486133 µm.
   Y Angle (deg)       Tan Shift       Sag Shift     Real Height     Ref. Height      Distortion
  --------------  --------------  --------------  --------------  --------------  --------------
      0.00000000     0.013370791     0.013370791      0.00000000      0.00000000      0.00000000
      0.36000000     0.013394466     0.013367451     0.022817118     0.022817028  3.9466753E-004
      0.72000000     0.013467313     0.013357303     0.045636579     0.045635859  1.5789451E-003
       1.0800000     0.013586242     0.013339968     0.068460725     0.068458293  3.5536539E-003
       1.4400000     0.013746249     0.013314824     0.091291903     0.091286134  6.3202084E-003
       1.8000000     0.013940590     0.013281024      0.11413246      0.11412119  9.8806744E-003
       2.1600000     0.014161002     0.013237512      0.13698476      0.13696526     0.014237842
       2.5200000     0.014397979     0.013183054      0.15985116      0.15982016     0.019395306
       2.8800000     0.014641076     0.013116264      0.18273404      0.18268771     0.025357537
       3.2400000     0.014879237     0.013035637      0.20563577      0.20556972     0.032129940
       3.6000000     0.015101139     0.012939587      0.22855876      0.22846801     0.039718888
       3.9600000     0.015295517     0.012826477      0.25150541      0.25138442     0.048131718
       4.3200000     0.015451491     0.012694660      0.27447816      0.27432076     0.057376684
       4.6800000     0.015558858     0.012542512      0.29747945      0.29727889     0.067462864
       5.0400000     0.015608345     0.012368466      0.32051174      0.32026065     0.078400012
       5.4000000     0.015591833     0.012171041      0.34357752      0.34326790     0.090198355
       5.7600000     0.015502524     0.011948877      0.36667930      0.36630249      0.10286835
       6.1200000     0.015335067     0.011700750      0.38981960      0.38936630      0.11642036
       6.4800000     0.015085629     0.011425601      0.41300097      0.41246121      0.13086433
       6.8400000     0.014751929     0.011122552      0.43622597      0.43558910      0.14620941
       7.2000000     0.014333218     0.010790912      0.45949719      0.45875188      0.16246350
       7.5600000     0.013830224     0.010430197      0.48281721      0.48195147      0.17963285
       7.9200000     0.013245069     0.010040125      0.50618864      0.50518977      0.19772160
       8.2800000     0.012581148  9.6206210E-003      0.52961410      0.52846874      0.21673132
       8.6400000     0.011842996  9.1718164E-003      0.55309619      0.55179032      0.23666056
       9.0000000     0.011036138  8.6940401E-003      0.57663753      0.57515648      0.25750443
       9.3600000     0.010166926  8.1878124E-003      0.60024071      0.59856918      0.27925415
       9.7200000  9.2423793E-003  7.6538337E-003      0.62390833      0.62203044      0.30189671
       10.080000  8.2700284E-003  7.0929724E-003      0.64764294      0.64554225      0.32541447
       10.440000  7.2577599E-003  6.5062515E-003      0.67144707      0.66910664      0.34978488
       10.800000  6.2136780E-003  5.8948338E-003      0.69532324      0.69272566      0.37498023
       11.160000  5.1459769E-003  5.2600067E-003      0.71927390      0.71640136      0.40096740
       11.520000  4.0628292E-003  4.6031674E-003      0.74330145      0.74013584      0.42770775
       11.880000  2.9722902E-003  3.9258070E-003      0.76740826      0.76393118      0.45515701
       12.240000  1.8822194E-003  3.2294962E-003      0.79159662      0.78778951      0.48326522
       12.600000  8.0021672E-004  2.5158706E-003      0.81586875      0.81171297      0.51197680
       12.960000 -2.6642625E-004  1.7866176E-003      0.84022681      0.83570372      0.54123059
       13.320000 -1.3107618E-003  1.0434631E-003      0.86467287      0.85976396      0.57096002
       13.680000 -2.3262116E-003  2.8815917E-004      0.88920893      0.88389589      0.60109331
       14.040000 -3.3065852E-003 -4.7752681E-004      0.91383689      0.90810174      0.63155370
       14.400000 -4.2460792E-003 -1.2518236E-003      0.93855858      0.93238378      0.66225977
       14.760000 -5.1393052E-003 -2.0329660E-003      0.96337574      0.95674430      0.69312580
       15.120000 -5.9812726E-003 -2.8192055E-003      0.98828999      0.98118560      0.72406216
       15.480000 -6.7674026E-003 -3.6088193E-003       1.0133029       1.0057100      0.75497574
       15.840000 -7.4935311E-003 -4.4001208E-003       1.0384159       1.0303200      0.78577045
       16.200000 -8.1559147E-003 -5.1914690E-003       1.0636304       1.0550178      0.81634773
       16.560000 -8.7512395E-003 -5.9812789E-003       1.0889477       1.0798060      0.84660709
       16.920000 -9.2766309E-003 -6.7680319E-003       1.1143689       1.1046869      0.87644672
       17.280000 -9.7296658E-003 -7.5502862E-003       1.1398953       1.1296632      0.90576410
       17.640000    -0.010108383 -8.3266886E-003       1.1655278       1.1547373      0.93445669
       18.000000    -0.010411291 -9.0959854E-003       1.1912675       1.1799118      0.96242264
       18.360000    -0.010637379 -9.8570348E-003       1.2171154       1.2051893      0.98956153
       18.720000    -0.010786107    -0.010608818       1.2430723       1.2305724       1.0157752
       19.080000    -0.010857404    -0.011350453       1.2691391       1.2560639       1.0409685
       19.440000    -0.010851644    -0.012081201       1.2953168       1.2816664       1.0650506
       19.800000    -0.010769612    -0.012800485       1.3216062       1.3073827       1.0879355
       20.160000    -0.010612457    -0.013507892       1.3480082       1.3332156       1.1095434
       20.520000    -0.010381625    -0.014203188       1.3745239       1.3591680       1.1298019
       20.880000    -0.010078776    -0.014886317       1.4011542       1.3852427       1.1486472
       21.240000 -9.7056848E-003    -0.015557414       1.4279005       1.4114427       1.1660254
       21.600000 -9.2641276E-003    -0.016216800       1.4547639       1.4377710       1.1818939
       21.960000 -8.7557479E-003    -0.016864984       1.4817461       1.4642306       1.1962232
       22.320000 -8.1819162E-003    -0.017502654       1.5088487       1.4908247       1.2089978
       22.680000 -7.5435790E-003    -0.018130673       1.5360738       1.5175563       1.2202186
       23.040000 -6.8411036E-003    -0.018750060       1.5634236       1.5444286       1.2299039
       23.400000 -6.0741228E-003    -0.019361971       1.5909009       1.5714450       1.2380908
       23.760000 -5.2413842E-003    -0.019967676       1.6185087       1.5986086       1.2448372
       24.120000 -4.3406077E-003    -0.020568526       1.6462506       1.6259230       1.2502224
       24.480000 -3.3683555E-003    -0.021165913       1.6741308       1.6533915       1.2543487
       24.840000 -2.3199165E-003    -0.021761226       1.7021537       1.6810175       1.2573413
       25.200000 -1.1892077E-003    -0.022355799       1.7303246       1.7088048       1.2593495
       25.560000  3.1308704E-005    -0.022950845       1.7586495       1.7367569       1.2605457
       25.920000  1.3506919E-003    -0.023547393       1.7871348       1.7648774       1.2611252
       26.280000  2.7795767E-003    -0.024146200       1.8157876       1.7931703       1.2613047
       26.640000  4.3302179E-003    -0.024747671       1.8446159       1.8216392       1.2613203
       27.000000  6.0165287E-003    -0.025351758       1.8736282       1.8502882       1.2614250
       27.360000  7.8541170E-003    -0.025957857       1.9028336       1.8791212       1.2618852
       27.720000  9.8603228E-003    -0.026564690       1.9322417       1.9081423       1.2629768
       28.080000     0.012054259    -0.027170184       1.9618629       1.9373557       1.2649804
       28.440000     0.014456855    -0.027771339       1.9917077       1.9667656       1.2681764
       28.800000     0.017090905    -0.028364092       2.0217870       1.9963763       1.2728389
       29.160000     0.019981114    -0.028943168       2.0521120       2.0261923       1.2792296
       29.520000     0.023154141    -0.029501930       2.0826939       2.0562182       1.2875918
       29.880000     0.026638647    -0.030032228       2.1135436       2.0864584       1.2981437
       30.240000     0.030465332    -0.030524228       2.1446721       2.1169177       1.3110718
       30.600000     0.034666988    -0.030966257       2.1760895       2.1476011       1.3265250
       30.960000     0.039278582    -0.031344632       2.2078057       2.1785133       1.3446090
       31.320000     0.044337409    -0.031643487       2.2398296       2.2096594       1.3653809
       31.680000     0.049883378    -0.031844604       2.2721692       2.2410446       1.3888456
       32.040000     0.055959508    -0.031927234       2.3048314       2.2726741       1.4149526
       32.400000     0.062612778    -0.031867924       2.3378218       2.3045534       1.4435953
       32.760000     0.069895460    -0.031640335       2.3711450       2.3366879       1.4746117
       33.120000     0.077867152    -0.031215069       2.4048041       2.3690834       1.5077881
       33.480000     0.086597695    -0.030559487       2.4388012       2.4017455       1.5428657
       33.840000     0.096171213    -0.029637550       2.4731372       2.4346802       1.5795512
       34.200000      0.10669143    -0.028409656       2.5078125       2.4678935       1.6175313
       34.560000      0.11828836    -0.026832525       2.5428271       2.5013918       1.6564925
       34.920000      0.13112619    -0.024859121       2.5781816       2.5351812       1.6961456
       35.280000      0.14541194    -0.022438670       2.6138775       2.5692684       1.7362550
       35.640000      0.16140382    -0.019516838       2.6499186       2.6036601       1.7766719
       36.000000      0.17941739    -0.016036178       2.6863117       2.6383630       1.8173689

Table series: Data for wavelength : 0.587562 µm.
   Y Angle (deg)       Tan Shift       Sag Shift     Real Height     Ref. Height      Distortion
  --------------  --------------  --------------  --------------  --------------  --------------
      0.00000000     0.019509222     0.019509222      0.00000000      0.00000000      0.00000000
      0.36000000     0.019522880     0.019502369     0.022854174     0.022854107  2.9164388E-004
      0.72000000     0.019566361     0.019481701     0.045710553     0.045710019  1.1675077E-003
       1.0800000     0.019636856     0.019446894     0.068571344     0.068569540  2.6303707E-003
       1.4400000     0.019729825     0.019397416     0.091438762     0.091434478  4.6848636E-003
       1.8000000     0.019839155     0.019332542      0.11431503      0.11430664  7.3374572E-003
       2.1600000     0.019957369     0.019251370      0.13720237      0.13718784     0.010596443
       2.5200000     0.020075876     0.019152848      0.16010305      0.16007988     0.014471897
       2.8800000     0.020185263     0.019035796      0.18301931      0.18298459     0.018975628
       3.2400000     0.020275596     0.018898936      0.20595345      0.20590378     0.024121089
       3.6000000     0.020336733     0.018740925      0.22890776      0.22883928     0.029923264
       3.9600000     0.020358639     0.018560382      0.25188458      0.25179293     0.036398515
       4.3200000     0.020331678     0.018355924      0.27488625      0.27476655     0.043564390
       4.6800000     0.020246886     0.018126199      0.29791515      0.29776199     0.051439384
       5.0400000     0.020096210     0.017869908      0.32097370      0.32078109     0.060042664
       5.4000000     0.019872706     0.017585843      0.34406432      0.34382573     0.069393750
       5.7600000     0.019570700     0.017272905      0.36718948      0.36689775     0.079512161
       6.1200000     0.019185895     0.016930130      0.39035166      0.38999904     0.090417026
       6.4800000     0.018715443     0.016556706      0.41355339      0.41313148      0.10212667
       6.8400000     0.018157967     0.016151991      0.43679720      0.43629695      0.11465818
       7.2000000     0.017513542     0.015715522      0.46008566      0.45949738      0.12802695
       7.5600000     0.016783642     0.015247025      0.48342133      0.48273466      0.14224625
       7.9200000     0.015971058     0.014746419      0.50680682      0.50601073      0.15732672
       8.2800000     0.015079781     0.014213813      0.53024473      0.52932753      0.17327600
       8.6400000     0.014114877     0.013649512      0.55373765      0.55268701      0.19009821
       9.0000000     0.013082341     0.013054004      0.57728821      0.57609113      0.20779363
       9.3600000     0.011988946     0.012427956      0.60089900      0.59954189      0.22635827
       9.7200000     0.010842089     0.011772204      0.62457260      0.62304127      0.24578353
       10.080000  9.6496399E-003     0.011087740      0.64831158      0.64659128      0.26605590
       10.440000  8.4198002E-003     0.010375700      0.67211848      0.67019397      0.28715672
       10.800000  7.1609662E-003  9.6373523E-003      0.69599580      0.69385137      0.30906195
       11.160000  5.8816105E-003  8.8740790E-003      0.71994602      0.71756555      0.33174201
       11.520000  4.5901755E-003  8.0873647E-003      0.74397154      0.74133859      0.35516167
       11.880000  3.2949830E-003  7.2787811E-003      0.76807475      0.76517260      0.37928002
       12.240000  2.0041596E-003  6.4499726E-003      0.79225794      0.78906970      0.40405049
       12.600000  7.2557617E-004  5.6026428E-003      0.81652337      0.81303204      0.42942085
       12.960000 -5.3319805E-004  4.7385418E-003      0.84087320      0.83706178      0.45533342
       13.320000 -1.7649295E-003  3.8594530E-003      0.86530955      0.86116112      0.48172518
       13.680000 -2.9627443E-003  2.9671821E-003      0.88983442      0.88533226      0.50852801
       14.040000 -4.1201442E-003  2.0635457E-003      0.91444977      0.90957745      0.53566900
       14.400000 -5.2310161E-003  1.1503604E-003      0.93915746      0.93389895      0.56307071
       14.760000 -6.2896387E-003  2.2943346E-004      0.96395926      0.95829905      0.59065160
       15.120000 -7.2906867E-003 -6.9744784E-004      0.98885686      0.98278007      0.61832641
       15.480000 -8.2292345E-003 -1.6285253E-003       1.0138519       1.0073444      0.64600657
       15.840000 -9.1007610E-003 -2.5620794E-003       1.0389458       1.0319943      0.67360075
       16.200000 -9.9011559E-003 -3.4964394E-003       1.0641401       1.0567322      0.70101529
       16.560000    -0.010626727 -4.4299924E-003       1.0894361       1.0815607      0.72815479
       16.920000    -0.011274212 -5.3611944E-003       1.1148352       1.1064821      0.75492269
       17.280000    -0.011840784 -6.2885800E-003       1.1403385       1.1314990      0.78122184
       17.640000    -0.012324064 -7.2107734E-003       1.1659471       1.1566138      0.80695518
       18.000000    -0.012722128 -8.1264993E-003       1.1916623       1.1818292      0.83202638
       18.360000    -0.013033508 -9.0345943E-003       1.2174851       1.2071478      0.85634061
       18.720000    -0.013257186 -9.9340177E-003       1.2434164       1.2325721      0.87980530
       19.080000    -0.013392587    -0.010823862       1.2694573       1.2581050      0.90233095
       19.440000    -0.013439547    -0.011703366       1.2956088       1.2837491      0.92383208
       19.800000    -0.013398280    -0.012571919       1.3218720       1.3095072      0.94422813
       20.160000    -0.013269325    -0.013429075       1.3482478       1.3353821      0.96344456
       20.520000    -0.013053477    -0.014274558       1.3747374       1.3613767      0.98141398
       20.880000    -0.012751701    -0.015108266       1.4013420       1.3874938      0.99807734
       21.240000    -0.012365031    -0.015930275       1.4280630       1.4137364       1.0133852
       21.600000    -0.011894454    -0.016740840       1.4549017       1.4401075       1.0272993
       21.960000    -0.011340777    -0.017540389       1.4818598       1.4666101       1.0397937
       22.320000    -0.010704487    -0.018329522       1.5089392       1.4932473       1.0508566
       22.680000 -9.9856030E-003    -0.019108994       1.5361421       1.5200224       1.0604916
       23.040000 -9.1835214E-003    -0.019879706       1.5634708       1.5469384       1.0687194
       23.400000 -8.2968667E-003    -0.020642680       1.5909283       1.5739986       1.0755794
       23.760000 -7.3233452E-003    -0.021399034       1.6185176       1.6012065       1.0811307
       24.120000 -6.2596084E-003    -0.022149954       1.6462425       1.6285652       1.0854535
       24.480000 -5.1011307E-003    -0.022896652       1.6741072       1.6560783       1.0886502
       24.840000 -3.8421022E-003    -0.023640325       1.7021164       1.6837493       1.0908458
       25.200000 -2.4753406E-003    -0.024382099       1.7302754       1.7115817       1.0921885
       25.560000 -9.9222043E-004    -0.025122975       1.7585902       1.7395792       1.0928492
       25.920000  6.1737867E-004    -0.025863755       1.7870673       1.7677455       1.0930208
       26.280000  2.3651083E-003    -0.026604973       1.8157140       1.7960843       1.0929173
       26.640000  4.2641740E-003    -0.027346809       1.8445382       1.8245995       1.0927714
       27.000000  6.3293470E-003    -0.028088997       1.8735484       1.8532950       1.0928321
       27.360000  8.5769701E-003    -0.028830725       1.9027538       1.8821749       1.0933615
       27.720000     0.011024958    -0.029570525       1.9321642       1.9112431       1.0946307
       28.080000     0.013692798    -0.030306161       1.9617897       1.9405040       1.0969153
       28.440000     0.016601545    -0.031034501       1.9916409       1.9699617       1.1004900
       28.800000     0.019773825    -0.031751391       2.0217288       1.9996205       1.1056237
       29.160000     0.023233828    -0.032451516       2.0520645       2.0294850       1.1125724
       29.520000     0.027007312    -0.033128255       2.0826591       2.0595596       1.1215740
       29.880000     0.031121609    -0.033773541       2.1135236       2.0898490       1.1328411
       30.240000     0.035605643    -0.034377702       2.1446689       2.1203578       1.1465553
       30.600000     0.040489984    -0.034929310       2.1761052       2.1510910       1.1628607
       30.960000     0.045806970    -0.035415017       2.2078422       2.1820534       1.1818588
       31.320000     0.051590935    -0.035819398       2.2398889       2.2132502       1.2036033
       31.680000     0.057878632    -0.036124778       2.2722533       2.2446864       1.2280961
       32.040000     0.064709944    -0.036311067       2.3049422       2.2763673       1.2552854
       32.400000     0.072129021    -0.036355583       2.3379615       2.3082984       1.2850643
       32.760000     0.080186014    -0.036232878       2.3713157       2.3404851       1.3172725
       33.120000     0.088939614    -0.035914558       2.4050082       2.3729332       1.3517000
       33.480000     0.098460621    -0.035369102       2.4390411       2.4056484       1.3880950
       33.840000      0.10883677    -0.034561687       2.4734159       2.4386366       1.4261744
       34.200000      0.12017901    -0.033454017       2.5081332       2.4719040       1.4656403
       34.560000      0.13262935    -0.032004182       2.5431939       2.5054567       1.5062004
       34.920000      0.14637014    -0.030166547       2.5785991       2.5393010       1.5475943
       35.280000      0.16163442    -0.027891724       2.6143517       2.5734436       1.5896252
       35.640000      0.17871646    -0.025126685       2.6504570       2.6078911       1.6321962
       36.000000      0.19798083    -0.021815108       2.6869240       2.6426504       1.6753483

Table series: Data for wavelength : 0.656273 µm.
   Y Angle (deg)       Tan Shift       Sag Shift     Real Height     Ref. Height      Distortion
  --------------  --------------  --------------  --------------  --------------  --------------
      0.00000000     0.025679543     0.025679543      0.00000000      0.00000000      0.00000000
      0.36000000     0.025689144     0.025671247     0.022872018     0.022871961  2.4791331E-004
      0.72000000     0.025720689     0.025646255     0.045746182     0.045745728  9.9287686E-004
       1.0800000     0.025771496     0.025604269     0.068624644     0.068623108  2.2385384E-003
       1.4400000     0.025837225     0.025544797     0.091509560     0.091505908  3.9909547E-003
       1.8000000     0.025912039     0.025467167      0.11440310      0.11439594  6.2585490E-003
       2.1600000     0.025988801     0.025370548      0.13730744      0.13729501  9.0520502E-003
       2.5200000     0.026059321     0.025253966      0.16022478      0.16020494     0.012384407
       2.8800000     0.026114633     0.025116335      0.18315733      0.18312754     0.016270674
       3.2400000     0.026145289     0.024956478      0.20610735      0.20606464     0.020727864
       3.6000000     0.026141664     0.024773158      0.22907709      0.22901806     0.025774770
       3.9600000     0.026094254     0.024565109      0.25206884      0.25198963     0.031431740
       4.3200000     0.025993964     0.024331067      0.27508492      0.27498120     0.037720420
       4.6800000     0.025832365     0.024069797      0.29812770      0.29799460     0.044663458
       5.0400000     0.025601932     0.023780123      0.32119954      0.32103169     0.052284164
       5.4000000     0.025296229     0.023460955      0.34430287      0.34409433     0.060606144
       5.7600000     0.024910066     0.023111311      0.36744013      0.36718438     0.069652897
       6.1200000     0.024439602     0.022730342      0.39061380      0.39030371     0.079447392
       6.4800000     0.023882413     0.022317347      0.41382638      0.41345422     0.090011620
       6.8400000     0.023237507     0.021871787      0.43708040      0.43663779      0.10136614
       7.2000000     0.022505315     0.021393300      0.46037841      0.45985634      0.11352962
       7.5600000     0.021687628     0.020881705      0.48372300      0.48311178      0.12651835
       7.9200000     0.020787519     0.020337010      0.50711675      0.50640603      0.14034583
       8.2800000     0.019809234     0.019759407      0.53056226      0.52974105      0.15502229
       8.6400000     0.018758058     0.019149277      0.55406214      0.55311877      0.17055428
       9.0000000     0.017640183     0.018507177      0.57761899      0.57654118      0.18694430
       9.3600000     0.016462554     0.017833840      0.60123542      0.60001026      0.20419038
       9.7200000     0.015232718     0.017130162      0.62491401      0.62352800      0.22228582
       10.080000     0.013958681     0.016397190      0.64865733      0.64709641      0.24121888
       10.440000     0.012648763     0.015636109      0.67246792      0.67071753      0.26097253
       10.800000     0.011311470     0.014848234      0.69634830      0.69439342      0.28152427
       11.160000  9.9553739E-003     0.014034990      0.72030094      0.71812612      0.30284599
       11.520000  8.5890120E-003     0.013197898      0.74432826      0.74191774      0.32490391
       11.880000  7.2207961E-003     0.012338566      0.76843263      0.76577037      0.34765850
       12.240000  5.8589405E-003     0.011458671      0.79261638      0.78968614      0.37106458
       12.600000  4.5114026E-003     0.010559946      0.81688176      0.81366719      0.39507134
       12.960000  3.1858388E-003  9.6441689E-003      0.84123095      0.83771571      0.41962249
       13.320000  1.8895704E-003  8.7131475E-003      0.86566607      0.86183387      0.44465647
       13.680000  6.2956066E-004  7.7687108E-003      0.89018915      0.88602389      0.47010667
       14.040000 -5.8760064E-004  6.8126969E-003      0.91480216      0.91028802      0.49590172
       14.400000 -1.7557066E-003  5.8469422E-003      0.93950697      0.93462852      0.52196582
       14.760000 -2.8689399E-003  4.8732720E-003      0.96430537      0.95904769      0.54821913
       15.120000 -3.9218766E-003  3.8934906E-003      0.98919908      0.98354783      0.57457812
       15.480000 -4.9094895E-003  2.9093716E-003       1.0141897       1.0081313      0.60095608
       15.840000 -5.8271535E-003  1.9226487E-003       1.0392789       1.0328005      0.62726356
       16.200000 -6.6706504E-003  9.3500614E-004       1.0644680       1.0575578      0.65340890
       16.560000 -7.4361775E-003 -5.1931157E-005       1.0897584       1.0824056      0.67929871
       16.920000 -8.1203552E-003 -1.0366076E-003       1.1151515       1.1073465      0.70483852
       17.280000 -8.7202366E-003 -2.0175470E-003       1.1406485       1.1323829      0.72993332
       17.640000 -9.2333150E-003 -2.9933634E-003       1.1662507       1.1575174      0.75448818
       18.000000 -9.6575295E-003 -3.9627716E-003       1.1919591       1.1827525      0.77840897
       18.360000 -9.9912658E-003 -4.9245979E-003       1.2177749       1.2080908      0.80160305
       18.720000    -0.010233349 -5.8777915E-003       1.2436991       1.2335350      0.82398001
       19.080000    -0.010383030 -6.8214342E-003       1.2697329       1.2590879      0.84545252
       19.440000    -0.010439955 -7.7547513E-003       1.2958772       1.2847520      0.86593719
       19.800000    -0.010404131 -8.6771204E-003       1.3221331       1.3105302      0.88535554
       20.160000    -0.010275866 -9.5880795E-003       1.3485018       1.3364253      0.90363499
       20.520000    -0.010055698    -0.010487334       1.3749843       1.3624402      0.92071004
       20.880000 -9.7443106E-003    -0.011374760       1.4015821       1.3885777      0.93652342
       21.240000 -9.3424273E-003    -0.012250410       1.4282963       1.4148408      0.95102739
       21.600000 -8.8506921E-003    -0.013114510       1.4551286       1.4412325      0.96418511
       21.960000 -8.2695359E-003    -0.013967454       1.4820807       1.4677558      0.97597207
       22.320000 -7.5990396E-003    -0.014809802       1.5091545       1.4944139      0.98637759
       22.680000 -6.8387792E-003    -0.015642267       1.5363521       1.5212098      0.99540636
       23.040000 -5.9876768E-003    -0.016465696       1.5636760       1.5481469       1.0030799
       23.400000 -5.0438495E-003    -0.017281056       1.5911292       1.5752283       1.0094380
       23.760000 -4.0044661E-003    -0.018089401       1.6187149       1.6024573       1.0145403
       24.120000 -2.8656130E-003    -0.018891847       1.6464368       1.6298375       1.0184670
       24.480000 -1.6221750E-003    -0.019689529       1.6742991       1.6573721       1.0213205
       24.840000 -2.6773318E-004    -0.020483562       1.7023067       1.6850647       1.0232253
       25.200000  1.2055181E-003    -0.021274983       1.7304647       1.7129188       1.0243290
       25.560000  2.8068349E-003    -0.022064700       1.7587793       1.7409382       1.0248015
       25.920000  4.5469681E-003    -0.022853419       1.7872571       1.7691264       1.0248346
       26.280000  6.4381898E-003    -0.023641574       1.8159052       1.7974874       1.0246409
       26.640000  8.4943052E-003    -0.024429245       1.8447316       1.8260249       1.0244513
       27.000000     0.010730652    -0.025216065       1.8737449       1.8547428       1.0245130
       27.360000     0.013164092    -0.026001126       1.9029542       1.8836453       1.0250859
       27.720000     0.015812995    -0.026782867       1.9323693       1.9127362       1.0264387
       28.080000     0.018697219    -0.027558966       1.9620003       1.9420199       1.0288445
       28.440000     0.021838094    -0.028326219       1.9918579       1.9715006       1.0325756
       28.800000     0.025258395    -0.029080407       2.0219529       2.0011827       1.0378979
       29.160000     0.028982328    -0.029816168       2.0522965       2.0310705       1.0450649
       29.520000     0.033035506    -0.030526855       2.0828997       2.0611686       1.0543117
       29.880000     0.037444951    -0.031204392       2.1137736       2.0914816       1.0658483
       30.240000     0.042239100    -0.031839126       2.1449289       2.1220143       1.0798538
       30.600000     0.047447868    -0.032419672       2.1763760       2.1527715       1.0964700
       30.960000     0.053102784    -0.032932759       2.2081244       2.1837581       1.1157963
       31.320000     0.059237256    -0.033363064       2.2401831       2.2149792       1.1378848
       31.680000     0.065887059    -0.033693055       2.2725601       2.2464400       1.1627363
       32.040000     0.073091134    -0.033902813       2.3052624       2.2781456       1.1902984
       32.400000     0.080892850    -0.033969865       2.3382956       2.3101017       1.2204644
       32.760000     0.089341916    -0.033869005       2.3716645       2.3423136       1.2530750
       33.120000     0.098497141    -0.033572114       2.4053724       2.3747870       1.2879229
       33.480000      0.10843028    -0.033047974       2.4394217       2.4075277       1.3247598
       33.840000      0.11923121    -0.032262089       2.4738139       2.4405417       1.3633085
       34.200000      0.13101465    -0.031176509       2.5085499       2.4738351       1.4032791
       34.560000      0.14392846    -0.029749671       2.5436308       2.5074140       1.4443899
       34.920000      0.15816362    -0.027936280       2.5790583       2.5412848       1.4863952
       35.280000      0.17396528    -0.025687259       2.6148357       2.5754540       1.5291170
       35.640000      0.19164425    -0.022949832       2.6509691       2.6099285       1.5724827
       36.000000      0.21158726    -0.019667826       2.6874684       2.6447149       1.6165653
