Results for:	
File:	C:\Users\User\OneDrive - Massachusetts Institute of Technology\Documents\MIT\Grad School\Classes\2.156\Lens Project\Prime Lenses\US08514500-1.zmx
Title:	
Date:	11/7/2025 5:50:32 PM

0 message(s) in output.
3 series table(s) in output.

Table series: Data for wavelength : 0.486133 µm.
   Y Angle (deg)       Tan Shift       Sag Shift     Real Height     Ref. Height      Distortion
  --------------  --------------  --------------  --------------  --------------  --------------
      0.00000000    -0.017255946    -0.017255946      0.00000000      0.00000000      0.00000000
      0.33000000    -0.017112084    -0.017220144     0.023737159     0.023736958  8.4688972E-004
      0.66000000    -0.016697712    -0.017113332     0.047477095     0.047475491  3.3782419E-003
      0.99000000    -0.016022616    -0.016937283     0.071222563     0.071217174  7.5664085E-003
       1.3200000    -0.015102611    -0.016694898     0.094976277     0.094963584     0.013366128
       1.6500000    -0.013958995    -0.016390127      0.11874089      0.11871630     0.020715803
       1.9800000    -0.012617820    -0.016027870      0.14251898      0.14247689     0.029539150
       2.3100000    -0.011109015    -0.015613850      0.16631303      0.16624696     0.039747178
       2.6400000 -9.4654011E-003    -0.015154467      0.19012544      0.19002806     0.051240522
       2.9700000 -7.7216510E-003    -0.014656644      0.21395847      0.21382181     0.063911872
       3.3000000 -5.9132147E-003    -0.014127666      0.23781429      0.23762978     0.077648519
       3.6300000 -4.0752847E-003    -0.013575015      0.26169498      0.26145356     0.092334929
       3.9600000 -2.2418201E-003    -0.013006208      0.28560247      0.28529477      0.10785518
       4.2900000 -4.4467559E-004    -0.012428653      0.30953864      0.30915499      0.12409525
       4.6200000  1.2871364E-003    -0.011849505      0.33350524      0.33303584      0.14094515
       4.9500000  2.9280363E-003    -0.011275548      0.35750396      0.35693893      0.15830064
       5.2800000  4.4562992E-003    -0.010713090      0.38153645      0.38086588      0.17606479
       5.6100000  5.8543141E-003    -0.010167884      0.40560426      0.40481831      0.19414911
       5.9400000  7.1086802E-003 -9.6450622E-003      0.42970895      0.42879786      0.21247442
       6.2700000  8.2101499E-003 -9.1490965E-003      0.45385203      0.45280617      0.23097135
       6.6000000  9.1534486E-003 -8.6837776E-003      0.47803500      0.47684489      0.24958058
       6.9300000  9.9369744E-003 -8.2522102E-003      0.50225938      0.50091566      0.26825277
       7.2600000     0.010562419 -7.8568262E-003      0.52652670      0.52502016      0.28694832
       7.5900000     0.011034327 -7.4994125E-003      0.55083850      0.54916006      0.30563686
       7.9200000     0.011359616 -7.1811487E-003      0.57519636      0.57333704      0.32429662
       8.2500000     0.011547088 -6.9026551E-003      0.59960189      0.59755280      0.34291369
       8.5800000     0.011606945 -6.6640465E-003      0.62405676      0.62180904      0.36148118
       8.9100000     0.011550330 -6.4649910E-003      0.64856267      0.64610747      0.37999839
       9.2400000     0.011388909 -6.3047709E-003      0.67312136      0.67044982      0.39846990
       9.5700000     0.011134492 -6.1823429E-003      0.69773465      0.69483783      0.41690477
       9.9000000     0.010798715 -6.0963971E-003      0.72240437      0.71927326      0.43531570
       10.230000     0.010392784 -6.0454152E-003      0.74713242      0.74375786      0.45371830
       10.560000  9.9272587E-003 -6.0277216E-003      0.77192075      0.76829341      0.47213047
       10.890000  9.4119173E-003 -6.0415321E-003      0.79677136      0.79288170      0.49057178
       11.220000  8.8556527E-003 -6.0849970E-003      0.82168627      0.81752455      0.50906303
       11.550000  8.2664310E-003 -6.1562379E-003      0.84666757      0.84222378      0.52762586
       11.880000  7.6512845E-003 -6.2533803E-003      0.87171738      0.86698122      0.54628250
       12.210000  7.0163431E-003 -6.3745793E-003      0.89683788      0.89179872      0.56505551
       12.540000  6.3668987E-003 -6.5180410E-003      0.92203127      0.91667817      0.58396776
       12.870000  5.7074915E-003 -6.6820383E-003      0.94729981      0.94162144      0.60304235
       13.200000  5.0419811E-003 -6.8649224E-003      0.97264581      0.96663045      0.62230267
       13.530000  4.3737229E-003 -7.0651301E-003      0.99807162      0.99170711      0.64177249
       13.860000  3.7056191E-003 -7.2811879E-003       1.0235796       1.0168534      0.66147615
       14.190000  3.0402687E-003 -7.5117123E-003       1.0491723       1.0420712      0.68143870
       14.520000  2.3800760E-003 -7.7554077E-003       1.0748522       1.0673626      0.70168613
       14.850000  1.7273529E-003 -8.0110627E-003       1.1006218       1.0927296      0.72224562
       15.180000  1.0844167E-003 -8.2775444E-003       1.1264839       1.1181742      0.74314572
       15.510000  4.5366672E-004 -8.5537922E-003       1.1524410       1.1436984      0.76441660
       15.840000 -1.6234972E-004 -8.8388093E-003       1.1784961       1.1693044      0.78609023
       16.170000 -7.6088852E-004 -9.1316554E-003       1.2046521       1.1949941      0.80820052
       16.500000 -1.3389862E-003 -9.4314399E-003       1.2309118       1.2207698      0.83078345
       16.830000 -1.8934499E-003 -9.7373122E-003       1.2572784       1.2466337      0.85387710
       17.160000 -2.4208679E-003    -0.010048459       1.2837550       1.2725878      0.87752161
       17.490000 -2.9176524E-003    -0.010364091       1.3103449       1.2986344      0.90175909
       17.820000 -3.3800863E-003    -0.010683447       1.3370515       1.3247757      0.92663337
       18.150000 -3.8044016E-003    -0.011005780       1.3638782       1.3510139      0.95218971
       18.480000 -4.1868721E-003    -0.011330362       1.3908285       1.3773515      0.97847433
       18.810000 -4.5239285E-003    -0.011656481       1.4179062       1.4037906       1.0055338
       19.140000 -4.8122771E-003    -0.011983434       1.4451150       1.4303337       1.0334145
       19.470000 -5.0490504E-003    -0.012310536       1.4724586       1.4569831       1.0621613
       19.800000 -5.2319450E-003    -0.012637117       1.4999410       1.4837413       1.0918169
       20.130000 -5.3593839E-003    -0.012962525       1.5275660       1.5106106       1.1224208
       20.460000 -5.4306669E-003    -0.013286131       1.5553376       1.5375937       1.1540072
       20.790000 -5.4461183E-003    -0.013607331       1.5832597       1.5646930       1.1866041
       21.120000 -5.4072206E-003    -0.013925552       1.6113360       1.5919110       1.2202315
       21.450000 -5.3167243E-003    -0.014240254       1.6395704       1.6192504       1.2548993
       21.780000 -5.1787238E-003    -0.014550938       1.6679665       1.6467139       1.2906056
       22.110000 -4.9986940E-003    -0.014857144       1.6965276       1.6743040       1.3273344
       22.440000 -4.7834563E-003    -0.015158458       1.7252571       1.7020236       1.3650540
       22.770000 -4.5410919E-003    -0.015454510       1.7541578       1.7298753       1.4037144
       23.100000 -4.2807600E-003    -0.015744975       1.7832323       1.7578621       1.4432458
       23.430000 -4.0124261E-003    -0.016029569       1.8124828       1.7859867       1.4835565
       23.760000 -3.7464884E-003    -0.016308044       1.8419108       1.8142520       1.5245316
       24.090000 -3.4932977E-003    -0.016580183       1.8715177       1.8426610       1.5660319
       24.420000 -3.2625750E-003    -0.016845788       1.9013039       1.8712168       1.6078936
       24.750000 -3.0627427E-003    -0.017104675       1.9312696       1.8999222       1.6499280
       25.080000 -2.9001953E-003    -0.017356659       1.9614140       1.9287806       1.6919228
       25.410000 -2.7785554E-003    -0.017601546       1.9917361       1.9577949       1.7336444
       25.740000 -2.6979855E-003    -0.017839131       2.0222339       1.9869684       1.7748403
       26.070000 -2.6546228E-003    -0.018069195       2.0529053       2.0163044       1.8152436
       26.400000 -2.6402895E-003    -0.018291517       2.0837473       2.0458062       1.8545786
       26.730000 -2.6425509E-003    -0.018505898       2.1147570       2.0754772       1.8925667
       27.060000 -2.6453276E-003    -0.018712203       2.1459311       2.1053208       1.9289336
       27.390000 -2.6301635E-003    -0.018910432       2.1772662       2.1353406       1.9634174
       27.720000 -2.5783067E-003    -0.019100812       2.2087594       2.1655400       1.9957752
       28.050000 -2.4736796E-003    -0.019283933       2.2404076       2.1959228       2.0257903
       28.380000 -2.3067381E-003    -0.019460916       2.2722088       2.2264927       2.0532762
       28.710000 -2.0790742E-003    -0.019633619       2.3041609       2.2572534       2.0780794
       29.040000 -1.8083953E-003    -0.019804885       2.3362630       2.2882088       2.1000768
       29.370000 -1.5332163E-003    -0.019978803       2.3685141       2.3193628       2.1191700
       29.700000 -1.3161959E-003    -0.020160982       2.4009138       2.3507195       2.1352754
       30.030000 -1.2446409E-003    -0.020358801       2.4334616       2.3822828       2.1483109
       30.360000 -1.4262253E-003    -0.020581578       2.4661568       2.4140570       2.1581832
       30.690000 -1.9778827E-003    -0.020840618       2.4989979       2.4460464       2.1647804
       31.020000 -3.0061555E-003    -0.021149055       2.5319832       2.4782552       2.1679784
       31.350000 -4.5787612E-003    -0.021521429       2.5651113       2.5106879       2.1676709
       31.680000 -6.6901047E-003    -0.021972951       2.5983829       2.5433489       2.1638369
       32.010000 -9.2283982E-003    -0.022518464       2.6318037       2.5762430       2.1566533
       32.340000    -0.011958609    -0.023171278       2.6653892       2.6093749       2.1466566
       32.670000    -0.014541794    -0.023942255       2.6991703       2.6427492       2.1349400
       33.000000    -0.016614722    -0.024839881       2.7331996       2.6763710       2.1233462

Table series: Data for wavelength : 0.587562 µm.
   Y Angle (deg)       Tan Shift       Sag Shift     Real Height     Ref. Height      Distortion
  --------------  --------------  --------------  --------------  --------------  --------------
      0.00000000 -2.7370468E-003 -2.7370468E-003      0.00000000      0.00000000      0.00000000
      0.33000000 -2.6076989E-003 -2.7061576E-003     0.023774151     0.023773974  7.4316867E-004
      0.66000000 -2.2356283E-003 -2.6140583E-003     0.047550935     0.047549526  2.9640769E-003
      0.99000000 -1.6302131E-003 -2.4624381E-003     0.071332967     0.071328232  6.6371677E-003
       1.3200000 -8.0660023E-004 -2.2540604E-003     0.095122821     0.095111673     0.011720651
       1.6500000  2.1483308E-004 -1.9926884E-003      0.11892302      0.11890143     0.018157683
       1.9800000  1.4091934E-003 -1.6829842E-003      0.14273600      0.14269908     0.025877932
       2.3100000  2.7479294E-003 -1.3303860E-003      0.16656415      0.16650621     0.034799486
       2.6400000  4.1997935E-003 -9.4096867E-004      0.19040972      0.19032440     0.044831009
       2.9700000  5.7318618E-003 -5.2129320E-004      0.21427490      0.21415525     0.055874065
       3.3000000  7.3105744E-003 -7.8247995E-005      0.23816177      0.23800034     0.067825531
       3.6300000  8.9027401E-003  3.8110828E-004      0.26207229      0.26186128     0.080579983
       3.9600000     0.010476479  8.4970149E-004      0.28600835      0.28573966     0.094032017
       4.2900000     0.012002057  1.3205870E-003      0.30997174      0.30963709      0.10807840
       4.6200000     0.013452590  1.7870815E-003      0.33396419      0.33355518      0.12262001
       4.9500000     0.014804602  2.2428796E-003      0.35798733      0.35749555      0.13756348
       5.2800000     0.016038410  2.6821503E-003      0.38204277      0.38145981      0.15282260
       5.6100000     0.017138357  3.0996162E-003      0.40613205      0.40544960      0.16831937
       5.9400000     0.018092883  3.4906100E-003      0.43025669      0.42946654      0.18398477
       6.2700000     0.018894445  3.8511122E-003      0.45441822      0.45351229      0.19975918
       6.6000000     0.019539323  4.1777682E-003      0.47861814      0.47758849      0.21559253
       6.9300000     0.020027303  4.4678900E-003      0.50285795      0.50169680      0.23144426
       7.2600000     0.020361299  4.7194403E-003      0.52713920      0.52583889      0.24728297
       7.5900000     0.020546899  4.9310031E-003      0.55146345      0.55001644      0.26308592
       7.9200000     0.020591899  5.1017440E-003      0.57583230      0.57423112      0.27883839
       8.2500000     0.020505813  5.2313620E-003      0.60024738      0.59848464      0.29453295
       8.5800000     0.020299398  5.3200346E-003      0.62471037      0.62277870      0.31016862
       8.9100000     0.019984212  5.3683590E-003      0.64922300      0.64711503      0.32575005
       9.2400000     0.019572198  5.3772919E-003      0.67378706      0.67149534      0.34128665
       9.5700000     0.019075331  5.3480895E-003      0.69840437      0.69592138      0.35679180
       9.9000000     0.018505309  5.2822494E-003      0.72307681      0.72039491      0.37228207
       10.230000     0.017873311  5.1814542E-003      0.74780631      0.74491769      0.38777650
       10.560000     0.017189801  5.0475210E-003      0.77259483      0.76949150      0.40329599
       10.890000     0.016464398  4.8823545E-003      0.79744441      0.79411815      0.41886279
       11.220000     0.015705793  4.6879054E-003      0.82235711      0.81879942      0.43450004
       11.550000     0.014921718  4.4661353E-003      0.84733503      0.84353717      0.45023142
       11.880000     0.014118945  4.2189856E-003      0.87238035      0.86833321      0.46608093
       12.210000     0.013303331  3.9483535E-003      0.89749524      0.89318942      0.48207272
       12.540000     0.012479891  3.6560726E-003      0.92268195      0.91810766      0.49823097
       12.870000     0.011652887  3.3438976E-003      0.94794278      0.94308983      0.51457997
       13.200000     0.010825907  3.0134952E-003      0.97328004      0.96813783      0.53114414
       13.530000     0.010002046  2.6664380E-003      0.99869612      0.99325361      0.54794818
       13.860000  9.1839580E-003  2.3042015E-003       1.0241935       1.0184391      0.56501719
       14.190000  8.3740083E-003  1.9281646E-003       1.0497745       1.0436963      0.58237694
       14.520000  7.5743850E-003  1.5396136E-003       1.0754419       1.0690271      0.60005406
       14.850000  6.7871991E-003  1.1397463E-003       1.1011981       1.0944337      0.61807627
       15.180000  6.0145835E-003  7.2967850E-004       1.1270459       1.1199179      0.63647265
       15.510000  5.2587672E-003  3.1045094E-004       1.1529880       1.1454819      0.65527383
       15.840000  4.5221414E-003 -1.1696147E-004       1.1790272       1.1711278      0.67451220
       16.170000  3.8073056E-003 -5.5164202E-004       1.2051665       1.1968576      0.69422207
       16.500000  3.1170886E-003 -9.9272474E-004       1.2314088       1.2226735      0.71443978
       16.830000  2.4545565E-003 -1.4393845E-003       1.2577573       1.2485777      0.73520376
       17.160000  1.8230015E-003 -1.8908350E-003       1.2842151       1.2745723      0.75655447
       17.490000  1.2258953E-003 -2.3463132E-003       1.3107856       1.3006595      0.77853433
       17.820000  6.6684351E-004 -2.8050837E-003       1.3374720       1.3268415      0.80118747
       18.150000  1.4950482E-004 -3.2664293E-003       1.3642780       1.3531207      0.82455945
       18.480000 -3.2250110E-004 -3.7296493E-003       1.3912071       1.3794994      0.84869678
       18.810000 -7.4570917E-004 -4.1940575E-003       1.4182630       1.4059797      0.87364637
       19.140000 -1.1169248E-003 -4.6589818E-003       1.4454495       1.4325642      0.89945483
       19.470000 -1.4333754E-003 -5.1237646E-003       1.4727703       1.4592552      0.92616757
       19.800000 -1.6928422E-003 -5.5877646E-003       1.5002295       1.4860551      0.95382777
       20.130000 -1.8938220E-003 -6.0503592E-003       1.5278308       1.5129663      0.98247526
       20.460000 -2.0356713E-003 -6.5109482E-003       1.5555784       1.5399915       1.0121451
       20.790000 -2.1187499E-003 -6.9689571E-003       1.5834761       1.5671330       1.0428661
       21.120000 -2.1445481E-003 -7.4238413E-003       1.6115278       1.5943935       1.0746593
       21.450000 -2.1157909E-003 -7.8750906E-003       1.6397373       1.6217755       1.1075358
       21.780000 -2.0365067E-003 -8.3222324E-003       1.6681083       1.6492818       1.1414952
       22.110000 -1.9120586E-003 -8.7648347E-003       1.6966443       1.6769150       1.1765238
       22.440000 -1.7491028E-003 -9.2025082E-003       1.7253485       1.7046778       1.2125921
       22.770000 -1.5554989E-003 -9.6349063E-003       1.7542241       1.7325729       1.2496529
       23.100000 -1.3401235E-003    -0.010061724       1.7832736       1.7606033       1.2876399
       23.430000 -1.1125984E-003    -0.010482694       1.8124992       1.7887718       1.3264656
       23.760000 -8.8291780E-004    -0.010897582       1.8419029       1.8170812       1.3660197
       24.090000 -6.6097363E-004    -0.011306178       1.8714859       1.8455345       1.4061686
       24.420000 -4.5598228E-004    -0.011708287       1.9012489       1.8741348       1.4467546
       24.750000 -2.7582802E-004    -0.012103718       1.9311923       1.9028850       1.4875962
       25.080000 -1.2635013E-004    -0.012492271       1.9613155       1.9317884       1.5284888
       25.410000 -1.0617241E-005    -0.012873732       1.9916177       1.9608479       1.5692071
       25.740000  7.1739189E-005    -0.013247859       2.0220972       1.9900670       1.6095076
       26.070000  1.2507441E-004    -0.013614385       2.0527521       2.0194487       1.6491329
       26.400000  1.5800285E-004    -0.013973028       2.0835798       2.0489965       1.6878168
       26.730000  1.8333751E-004    -0.014323508       2.1145776       2.0787138       1.7252900
       27.060000  2.1748344E-004    -0.014665590       2.1457425       2.1086039       1.7612876
       27.390000  2.7919487E-004    -0.014999147       2.1770715       2.1386705       1.7955556
       27.720000  3.8753999E-004    -0.015324252       2.2085618       2.1689170       1.8278585
       28.050000  5.5899596E-004    -0.015641305       2.2402108       2.1993472       1.8579849
       28.380000  8.0367225E-004    -0.015951196       2.2720164       2.2299648       1.8857525
       28.710000  1.1207971E-003    -0.016255503       2.3039770       2.2607734       1.9110090
       29.040000  1.4938112E-003    -0.016556732       2.3360916       2.2917771       1.9336309
       29.370000  1.8857017E-003    -0.016858572       2.3683595       2.3229797       1.9535169
       29.700000  2.2355999E-003    -0.017166160       2.4007802       2.3543852       1.9705781
       30.030000  2.4580561E-003    -0.017486332       2.4333533       2.3859978       1.9847247
       30.360000  2.4469058E-003    -0.017827789       2.4660777       2.4178216       1.9958528
       30.690000  2.0857370E-003    -0.018201157       2.4989520       2.4498608       2.0038361
       31.020000  1.2667571E-003    -0.018618853       2.5319739       2.4821198       2.0085301
       31.350000 -8.1460553E-005    -0.019094693       2.5651415       2.5146031       2.0097985
       31.680000 -1.9595471E-003    -0.019643193       2.5984544       2.5473151       2.0075755
       32.010000 -4.2629923E-003    -0.020278584       2.6319166       2.5802605       2.0019712
       32.340000 -6.7608478E-003    -0.021013656       2.6655411       2.6134440       1.9934274
       32.670000 -9.1066161E-003    -0.021858796       2.6993555       2.6468704       1.9829112
       33.000000    -0.010904371    -0.022821855       2.7334080       2.6805446       1.9721149

Table series: Data for wavelength : 0.656273 µm.
   Y Angle (deg)       Tan Shift       Sag Shift     Real Height     Ref. Height      Distortion
  --------------  --------------  --------------  --------------  --------------  --------------
      0.00000000  7.1088510E-003  7.1088510E-003      0.00000000      0.00000000      0.00000000
      0.33000000  7.2323668E-003  7.1377481E-003     0.023791604     0.023791438  6.9840134E-004
      0.66000000  7.5873896E-003  7.2238820E-003     0.047585779     0.047584454  2.7853217E-003
      0.99000000  8.1646994E-003  7.3655961E-003     0.071385079     0.071380627  6.2361049E-003
       1.3200000  8.9494099E-003  7.5601803E-003     0.095192018     0.095181538     0.011010464
       1.6500000  9.9215034E-003  7.8039456E-003      0.11900906      0.11898877     0.017053608
       1.9800000     0.011056541  8.0923237E-003      0.14283860      0.14280390     0.024297777
       2.3100000     0.012326513  8.4199885E-003      0.16668294      0.16662851     0.032664121
       2.6400000     0.013700797  8.7809939E-003      0.19054432      0.19046420     0.042064775
       2.9700000     0.015147163  9.1689236E-003      0.21442487      0.21431256     0.052405134
       3.3000000     0.016632811  9.5770475E-003      0.23832661      0.23817517     0.063586224
       3.6300000     0.018125355  9.9984767E-003      0.26225150      0.26205363     0.075506989
       3.9600000     0.019593760     0.010426317      0.28620138      0.28594956     0.088066572
       4.2900000     0.021009161     0.010853811      0.31017802      0.30986454      0.10116640
       4.6200000     0.022345553     0.011274468      0.33418311      0.33380020      0.11471204
       4.9500000     0.023580334     0.011682181      0.35821828      0.35775815      0.12861485
       5.2800000     0.024694680     0.012071316      0.38228511      0.38174001      0.14279324
       5.6100000     0.025673762     0.012436793      0.40638515      0.40574742      0.15717375
       5.9400000     0.026506810     0.012774141      0.43051991      0.42978201      0.17169174
       6.2700000     0.027187020     0.013079531      0.45469090      0.45384542      0.18629180
       6.6000000     0.027711352     0.013349796      0.47889962      0.47793931      0.20092788
       6.9300000     0.028080213     0.013582427      0.50314760      0.50206533      0.21556319
       7.2600000     0.028297066     0.013775558      0.52743637      0.52622515      0.23016989
       7.5900000     0.028367983     0.013927936      0.55176749      0.55042046      0.24472852
       7.9200000     0.028301171     0.014038878      0.57614259      0.57465293      0.25922743
       8.2500000     0.028106490     0.014108227      0.60056329      0.59892427      0.27366197
       8.5800000     0.027794978     0.014136291      0.62503130      0.62323617      0.28803372
       8.9100000     0.027378409     0.014123791      0.64954836      0.64759037      0.30234964
       9.2400000     0.026868891     0.014071793      0.67411625      0.67198859      0.31662123
       9.5700000     0.026278510     0.013981653      0.69873682      0.69643258      0.33086373
       9.9000000     0.025619031     0.013854960      0.72341196      0.72092409      0.34509539
       10.230000     0.024901659     0.013693474      0.74814361      0.74546488      0.35933672
       10.560000     0.024136855     0.013499084      0.77293375      0.77005674      0.37360995
       10.890000     0.023334206     0.013273756      0.79778443      0.79470147      0.38793847
       11.220000     0.022502351     0.013019494      0.82269771      0.81940088      0.40234643
       11.550000     0.021648951     0.012738304      0.84767573      0.84415680      0.41685842
       11.880000     0.020780700     0.012432167      0.87272066      0.86897105      0.43149920
       12.210000     0.019903370     0.012103011      0.89783469      0.89384552      0.44629361
       12.540000     0.019021884     0.011752698      0.92302010      0.91878207      0.46126643
       12.870000     0.018140417     0.011383001      0.94827917      0.94378259      0.47644247
       13.200000     0.017262470     0.010995606      0.97361424      0.96884899      0.49184662
       13.530000     0.016391058     0.010592099      0.99902772      0.99398322      0.50750398
       13.860000     0.015528761     0.010173964       1.0245220       1.0191872      0.52344003
       14.190000     0.014677881  9.7425884E-003       1.0500997       1.0444629      0.53968087
       14.520000     0.013840549  9.2992632E-003       1.0757633       1.0698124      0.55625342
       14.850000     0.013018830  8.8451899E-003       1.1015153       1.0952376      0.57318569
       15.180000     0.012214821  8.3814864E-003       1.1273586       1.1207406      0.59050701
       15.510000     0.011430723  7.9091946E-003       1.1532958       1.1463234      0.60824826
       15.840000     0.010668910  7.4292898E-003       1.1793299       1.1719881      0.62644204
       16.170000  9.9319720E-003  6.9426889E-003       1.2054637       1.1977368      0.64512290
       16.500000  9.2227351E-003  6.4502574E-003       1.2317002       1.2235717      0.66432738
       16.830000  8.5442699E-003  5.9528203E-003       1.2580426       1.2494949      0.68409410
       17.160000  7.8998786E-003  5.4511634E-003       1.2844940       1.2755085      0.70446373
       17.490000  7.2930471E-003  4.9460498E-003       1.3110578       1.3016149      0.72547887
       17.820000  6.7273983E-003  4.4382148E-003       1.3377374       1.3278162      0.74718385
       18.150000  6.2066104E-003  3.9283760E-003       1.3645363       1.3541147      0.76962441
       18.480000  5.7343239E-003  3.4172344E-003       1.3914580       1.3805127      0.79284725
       18.810000  5.3140249E-003  2.9054770E-003       1.4185064       1.4070125      0.81689951
       19.140000  4.9489288E-003  2.3937768E-003       1.4456851       1.4336165      0.84182797
       19.470000  4.6418279E-003  1.8827923E-003       1.4729980       1.4603271      0.86767829
       19.800000  4.3949596E-003  1.3731659E-003       1.5004491       1.4871467      0.89449392
       20.130000  4.2098442E-003  8.6552153E-004       1.5280423       1.5140777      0.92231496
       20.460000  4.0871412E-003  3.6046076E-004       1.5557815       1.5411227      0.95117683
       20.790000  4.0265062E-003 -1.4144052E-004       1.5836707       1.5682841      0.98110875
       21.120000  4.0264637E-003 -6.3963640E-004       1.6117139       1.5955647       1.0121321
       21.450000  4.0843051E-003 -1.1336149E-003       1.6399148       1.6229668       1.0442588
       21.780000  4.1960198E-003 -1.6229015E-003       1.6682772       1.6504933       1.0774892
       22.110000  4.3562662E-003 -2.1070622E-003       1.6968046       1.6781468       1.1118101
       22.440000  4.5584149E-003 -2.5857046E-003       1.7255003       1.7059299       1.1471932
       22.770000  4.7946399E-003 -3.0584789E-003       1.7543673       1.7338456       1.1835927
       23.100000  5.0561071E-003 -3.5250754E-003       1.7834084       1.7618966       1.2209436
       23.430000  5.3332480E-003 -3.9852213E-003       1.8126258       1.7900857       1.2591599
       23.760000  5.6161347E-003 -4.4386741E-003       1.8420214       1.8184159       1.2981337
       24.090000  5.8949563E-003 -4.8852139E-003       1.8715967       1.8468902       1.3377334
       24.420000  6.1605943E-003 -5.3246328E-003       1.9013523       1.8755115       1.3778041
       24.750000  6.4052810E-003 -5.7567232E-003       1.9312887       1.9042828       1.4181669
       25.080000  6.6233141E-003 -6.1812660E-003       1.9614055       1.9332074       1.4586209
       25.410000  6.8117851E-003 -6.5980194E-003       1.9917019       1.9622883       1.4989440
       25.740000  6.9712474E-003 -7.0067106E-003       2.0221764       1.9915288       1.5388968
       26.070000  7.1062703E-003 -7.4070340E-003       2.0528270       2.0209321       1.5782258
       26.400000  7.2257143E-003 -7.7986579E-003       2.0836515       2.0505016       1.6166688
       26.730000  7.3426777E-003 -8.1812447E-003       2.1146471       2.0802407       1.6539609
       27.060000  7.4738961E-003 -8.5544896E-003       2.1458111       2.1101528       1.6898410
       27.390000  7.6385096E-003 -8.9181817E-003       2.1771405       2.1402415       1.7240591
       27.720000  7.8560379E-003 -9.2722949E-003       2.2086327       2.1705102       1.7563830
       28.050000  8.1434863E-003 -9.6171110E-003       2.2402853       2.2009628       1.7866042
       28.380000  8.5115789E-003 -9.9533806E-003       2.2720962       2.2316028       1.8145422
       28.710000  8.9602498E-003    -0.010282521       2.3040639       2.2624341       1.8400462
       29.040000  9.4737330E-003    -0.010606848       2.3361876       2.2934606       1.8629929
       29.370000     0.010015876    -0.010929837       2.3684664       2.3246861       1.8832803
       29.700000     0.010526699    -0.011256377       2.4009001       2.3561147       1.9008178
       30.030000     0.010921596    -0.011593027       2.4334881       2.3877505       1.9155128
       30.360000     0.011095118    -0.011948182       2.4662295       2.4195976       1.9272575
       30.690000     0.010931340    -0.012332134       2.4991225       2.4516604       1.9359198
       31.020000     0.010322681    -0.012756946       2.5321651       2.4839431       1.9413474
       31.350000  9.1977624E-003    -0.013236064       2.5653547       2.5164502       1.9433929
       31.680000  7.5562887E-003    -0.013783634       2.5986908       2.5491863       1.9419736
       32.010000  5.5044760E-003    -0.014413515       2.6321767       2.5821559       1.9371753
       32.340000  3.2784234E-003    -0.015138129       2.6658247       2.6153637       1.9294056
       32.670000  1.2366703E-003    -0.015967456       2.6996609       2.6488147       1.9195860
       33.000000 -2.0093299E-004    -0.016908841       2.7337323       2.6825136       1.9093537
