Results for:	
File:	C:\Users\User\OneDrive - Massachusetts Institute of Technology\Documents\MIT\Grad School\Classes\2.156\Lens Project\Prime Lenses\US02601369-1.ZMX
Title:	Lens has no title.
Date:	11/7/2025 5:42:41 PM

0 message(s) in output.
3 series table(s) in output.

Table series: Data for wavelength : 0.486133 µm.
   Y Angle (deg)       Tan Shift       Sag Shift     Real Height     Ref. Height      Distortion
  --------------  --------------  --------------  --------------  --------------  --------------
      0.00000000 -1.1434686E-003 -1.1434686E-003      0.00000000      0.00000000      0.00000000
      0.15000000 -1.1428934E-003 -1.1440398E-003  2.5437080E-003  2.5437079E-003  5.2779299E-006
      0.30000000 -1.1416593E-003 -1.1457535E-003  5.0874517E-003  5.0874506E-003  2.1110034E-005
      0.45000000 -1.1397652E-003 -1.1486088E-003  7.6312667E-003  7.6312631E-003  4.7488918E-005
      0.60000000 -1.1372097E-003 -1.1526046E-003     0.010175189     0.010175180  8.4402646E-005
      0.75000000 -1.1339909E-003 -1.1577393E-003     0.012719254     0.012719237  1.3183451E-004
      0.90000000 -1.1301061E-003 -1.1640108E-003     0.015263497     0.015263468  1.8976301E-004
       1.0500000 -1.1255522E-003 -1.1714165E-003     0.017807954     0.017807908  2.5816189E-004
       1.2000000 -1.1203255E-003 -1.1799535E-003     0.020352661     0.020352592  3.3700009E-004
       1.3500000 -1.1144217E-003 -1.1896182E-003     0.022897654     0.022897556  4.2624178E-004
       1.5000000 -1.1078359E-003 -1.2004067E-003     0.025442967     0.025442834  5.2584632E-004
       1.6500000 -1.1005627E-003 -1.2123146E-003     0.027988638     0.027988460  6.3576828E-004
       1.8000000 -1.0925962E-003 -1.2253370E-003     0.030534702     0.030534471  7.5595745E-004
       1.9500000 -1.0839297E-003 -1.2394685E-003     0.033081194     0.033080900  8.8635878E-004
       2.1000000 -1.0745563E-003 -1.2547033E-003     0.035628150     0.035627784  1.0269124E-003
       2.2500000 -1.0644682E-003 -1.2710351E-003     0.038175606     0.038175157  1.1775538E-003
       2.4000000 -1.0536573E-003 -1.2884572E-003     0.040723598     0.040723053  1.3382133E-003
       2.5500000 -1.0421147E-003 -1.3069622E-003     0.043272162     0.043271509  1.5088167E-003
       2.7000000 -1.0298313E-003 -1.3265424E-003     0.045821334     0.045820559  1.6892847E-003
       2.8500000 -1.0167971E-003 -1.3471897E-003     0.048371148     0.048370239  1.8795335E-003
       3.0000000 -1.0030017E-003 -1.3688953E-003     0.050921643     0.050920584  2.0794740E-003
       3.1500000 -9.8843433E-004 -1.3916501E-003     0.053472852     0.053471628  2.2890127E-003
       3.3000000 -9.7308340E-004 -1.4154444E-003     0.056024813     0.056023408  2.5080508E-003
       3.4500000 -9.5693696E-004 -1.4402679E-003     0.058577561     0.058575958  2.7364849E-003
       3.6000000 -9.3998252E-004 -1.4661102E-003     0.061131132     0.061129314  2.9742065E-003
       3.7500000 -9.2220705E-004 -1.4929599E-003     0.063685562     0.063683511  3.2211024E-003
       3.9000000 -9.0359700E-004 -1.5208055E-003     0.066240888     0.066238585  3.4770543E-003
       4.0500000 -8.8413833E-004 -1.5496349E-003     0.068797145     0.068794571  3.7419391E-003
       4.2000000 -8.6381650E-004 -1.5794353E-003     0.071354370     0.071351505  4.0156285E-003
       4.3500000 -8.4261644E-004 -1.6101937E-003     0.073912599     0.073909422  4.2979897E-003
       4.5000000 -8.2052263E-004 -1.6418962E-003     0.076471867     0.076468358  4.5888844E-003
       4.6500000 -7.9751904E-004 -1.6745289E-003     0.079032212     0.079028349  4.8881698E-003
       4.8000000 -7.7358918E-004 -1.7080768E-003     0.081593670     0.081589431  5.1956977E-003
       4.9500000 -7.4871609E-004 -1.7425249E-003     0.084156276     0.084151638  5.5113151E-003
       5.1000000 -7.2288233E-004 -1.7778573E-003     0.086720068     0.086715008  5.8348639E-003
       5.2500000 -6.9607003E-004 -1.8140578E-003     0.089285082     0.089279576  6.1661811E-003
       5.4000000 -6.6826086E-004 -1.8511095E-003     0.091851353     0.091845379  6.5050984E-003
       5.5500000 -6.3943607E-004 -1.8889951E-003     0.094418920     0.094412451  6.8514426E-003
       5.7000000 -6.0957646E-004 -1.9276966E-003     0.096987818     0.096980830  7.2050354E-003
       5.8500000 -5.7866245E-004 -1.9671956E-003     0.099558083     0.099550552  7.5656934E-003
       6.0000000 -5.4667402E-004 -2.0074730E-003      0.10212975      0.10212165  7.9332279E-003
       6.1500000 -5.1359077E-004 -2.0485094E-003      0.10470287      0.10469417  8.3074454E-003
       6.3000000 -4.7939193E-004 -2.0902844E-003      0.10727746      0.10726814  8.6881469E-003
       6.4500000 -4.4405634E-004 -2.1327774E-003      0.10985356      0.10984359  9.0751284E-003
       6.6000000 -4.0756249E-004 -2.1759672E-003      0.11243122      0.11242057  9.4681808E-003
       6.7500000 -3.6988854E-004 -2.2198317E-003      0.11501046      0.11499912  9.8670896E-003
       6.9000000 -3.3101228E-004 -2.2643486E-003      0.11759133      0.11757926     0.010271635
       7.0500000 -2.9091124E-004 -2.3094947E-003      0.12017387      0.12016103     0.010681593
       7.2000000 -2.4956259E-004 -2.3552464E-003      0.12275810      0.12274448     0.011096733
       7.3500000 -2.0694327E-004 -2.4015794E-003      0.12534407      0.12532964     0.011516819
       7.5000000 -1.6302992E-004 -2.4484688E-003      0.12793182      0.12791654     0.011941611
       7.6500000 -1.1779893E-004 -2.4958890E-003      0.13052138      0.13050523     0.012370863
       7.8000000 -7.1226475E-005 -2.5438140E-003      0.13311278      0.13309574     0.012804323
       7.9500000 -2.3288505E-005 -2.5922168E-003      0.13570608      0.13568811     0.013241736
       8.1000000  2.6039218E-005 -2.6410700E-003      0.13830130      0.13828238     0.013682839
       8.2500000  7.6781104E-005 -2.6903455E-003      0.14089848      0.14087857     0.014127364
       8.4000000  1.2896171E-004 -2.7400146E-003      0.14349766      0.14347675     0.014575040
       8.5500000  1.8260573E-004 -2.7900477E-003      0.14609887      0.14607693     0.015025588
       8.7000000  2.3773794E-004 -2.8404148E-003      0.14870217      0.14867915     0.015478724
       8.8500000  2.9438320E-004 -2.8910850E-003      0.15130757      0.15128347     0.015934160
       9.0000000  3.5256644E-004 -2.9420268E-003      0.15391513      0.15388990     0.016391601
       9.1500000  4.1231259E-004 -2.9932080E-003      0.15652488      0.15649850     0.016850748
       9.3000000  4.7364657E-004 -3.0445955E-003      0.15913685      0.15910931     0.017311295
       9.4500000  5.3659329E-004 -3.0961557E-003      0.16175109      0.16172235     0.017772931
       9.6000000  6.0117756E-004 -3.1478541E-003      0.16436763      0.16433766     0.018235341
       9.7500000  6.6742411E-004 -3.1996556E-003      0.16698652      0.16695530     0.018698202
       9.9000000  7.3535752E-004 -3.2515241E-003      0.16960779      0.16957529     0.019161187
       10.050000  8.0500222E-004 -3.3034230E-003      0.17223147      0.17219768     0.019623963
       10.200000  8.7638240E-004 -3.3553147E-003      0.17485762      0.17482250     0.020086193
       10.350000  9.4952202E-004 -3.4071609E-003      0.17748626      0.17744980     0.020547532
       10.500000  1.0244447E-003 -3.4589225E-003      0.18011744      0.18007961     0.021007631
       10.650000  1.1011739E-003 -3.5105594E-003      0.18275119      0.18271197     0.021466134
       10.800000  1.1797324E-003 -3.5620309E-003      0.18538756      0.18534693     0.021922682
       10.950000  1.2601429E-003 -3.6132952E-003      0.18802658      0.18798452     0.022376907
       11.100000  1.3424273E-003 -3.6643099E-003      0.19066830      0.19062478     0.022828440
       11.250000  1.4266071E-003 -3.7150315E-003      0.19331274      0.19326775     0.023276901
       11.400000  1.5127033E-003 -3.7654157E-003      0.19595996      0.19591349     0.023721908
       11.550000  1.6007362E-003 -3.8154173E-003      0.19860999      0.19856201     0.024163074
       11.700000  1.6907254E-003 -3.8649901E-003      0.20126287      0.20121337     0.024600003
       11.850000  1.7826896E-003 -3.9140869E-003      0.20391864      0.20386761     0.025032296
       12.000000  1.8766470E-003 -3.9626598E-003      0.20657734      0.20652476     0.025459548
       12.150000  1.9726145E-003 -4.0106596E-003      0.20923902      0.20918488     0.025881348
       12.300000  2.0706084E-003 -4.0580362E-003      0.21190370      0.21184799     0.026297279
       12.450000  2.1706437E-003 -4.1047387E-003      0.21457144      0.21451415     0.026706920
       12.600000  2.2727344E-003 -4.1507149E-003      0.21724226      0.21718339     0.027109843
       12.750000  2.3768933E-003 -4.1959115E-003      0.21991622      0.21985575     0.027505615
       12.900000  2.4831319E-003 -4.2402744E-003      0.22259336      0.22253129     0.027893797
       13.050000  2.5914602E-003 -4.2837482E-003      0.22527371      0.22521003     0.028273945
       13.200000  2.7018869E-003 -4.3262765E-003      0.22795731      0.22789203     0.028645609
       13.350000  2.8144192E-003 -4.3678015E-003      0.23064421      0.23057732     0.029008334
       13.500000  2.9290623E-003 -4.4082647E-003      0.23333444      0.23326595     0.029361659
       13.650000  3.0458200E-003 -4.4476059E-003      0.23602806      0.23595797     0.029705117
       13.800000  3.1646940E-003 -4.4857640E-003      0.23872509      0.23865340     0.030038237
       13.950000  3.2856839E-003 -4.5226767E-003      0.24142559      0.24135231     0.030360541
       14.100000  3.4087875E-003 -4.5582802E-003      0.24412959      0.24405473     0.030671546
       14.250000  3.5339999E-003 -4.5925095E-003      0.24683713      0.24676071     0.030970765
       14.400000  3.6613143E-003 -4.6252985E-003      0.24954827      0.24947029     0.031257703
       14.550000  3.7907210E-003 -4.6565795E-003      0.25226303      0.25218351     0.031531862
       14.700000  3.9222076E-003 -4.6862834E-003      0.25498146      0.25490042     0.031792738
       14.850000  4.0557592E-003 -4.7143400E-003      0.25770361      0.25762107     0.032039819
       15.000000  4.1913575E-003 -4.7406773E-003      0.26042952      0.26034550     0.032272591

Table series: Data for wavelength : 0.587562 µm.
   Y Angle (deg)       Tan Shift       Sag Shift     Real Height     Ref. Height      Distortion
  --------------  --------------  --------------  --------------  --------------  --------------
      0.00000000 -2.2712790E-008 -2.2712790E-008      0.00000000      0.00000000      0.00000000
      0.15000000  5.0329776E-007 -6.2522754E-007  2.5434557E-003  2.5434556E-003  4.7785659E-006
      0.30000000  1.6041293E-006 -2.4325430E-006  5.0869470E-003  5.0869460E-003  1.9112459E-005
      0.45000000  3.2806683E-006 -5.4439727E-006  7.6305094E-003  7.6305062E-003  4.2993933E-005
      0.60000000  5.5343836E-006 -9.6583723E-006     0.010174179     0.010174171  7.6410465E-005
      0.75000000  8.3673264E-006 -1.5074140E-005     0.012717990     0.012717975  1.1934452E-004
      0.90000000  1.1782129E-005 -2.1689214E-005     0.015261980     0.015261954  1.7177355E-004
       1.0500000  1.5782005E-005 -2.9501074E-005     0.017806183     0.017806142  2.3367000E-004
       1.2000000  2.0370748E-005 -3.8506742E-005     0.020350636     0.020350574  3.0500127E-004
       1.3500000  2.5552729E-005 -4.8702776E-005     0.022895373     0.022895285  3.8572975E-004
       1.5000000  3.1332898E-005 -6.0085276E-005     0.025440431     0.025440310  4.7581281E-004
       1.6500000  3.7716781E-005 -7.2649878E-005     0.027985845     0.027985684  5.7520277E-004
       1.8000000  4.4710475E-005 -8.6391754E-005     0.030531651     0.030531442  6.8384692E-004
       1.9500000  5.2320655E-005 -1.0130561E-004     0.033077884     0.033077619  8.0168748E-004
       2.1000000  6.0554561E-005 -1.1738570E-004     0.035624581     0.035624250  9.2866163E-004
       2.2500000  6.9420006E-005 -1.3462578E-004     0.038171776     0.038171370  1.0647015E-003
       2.4000000  7.8925365E-005 -1.5301917E-004     0.040719507     0.040719014  1.2097341E-003
       2.5500000  8.9079577E-005 -1.7255869E-004     0.043267807     0.043267217  1.3636814E-003
       2.7000000  9.9892144E-005 -1.9323672E-004     0.045816714     0.045816014  1.5264603E-003
       2.8500000  1.1137312E-004 -2.1504514E-004     0.048366263     0.048365441  1.6979825E-003
       3.0000000  1.2353312E-004 -2.3797535E-004     0.050916489     0.050915533  1.8781546E-003
       3.1500000  1.3638331E-004 -2.6201829E-004     0.053467429     0.053466324  2.0668782E-003
       3.3000000  1.4993538E-004 -2.8716442E-004     0.056019119     0.056017851  2.2640497E-003
       3.4500000  1.6420161E-004 -3.1340369E-004     0.058571594     0.058570148  2.4695602E-003
       3.6000000  1.7919476E-004 -3.4072559E-004     0.061124890     0.061123250  2.6832959E-003
       3.7500000  1.9492817E-004 -3.6911911E-004     0.063679044     0.063677194  2.9051376E-003
       3.9000000  2.1141570E-004 -3.9857274E-004     0.066234091     0.066232015  3.1349609E-003
       4.0500000  2.2867171E-004 -4.2907449E-004     0.068790067     0.068787747  3.3726363E-003
       4.2000000  2.4671112E-004 -4.6061186E-004     0.071347009     0.071344427  3.6180291E-003
       4.3500000  2.6554931E-004 -4.9317186E-004     0.073904952     0.073902091  3.8709992E-003
       4.5000000  2.8520222E-004 -5.2674099E-004     0.076463932     0.076460773  4.1314014E-003
       4.6500000  3.0568626E-004 -5.6130524E-004     0.079023987     0.079020510  4.3990852E-003
       4.8000000  3.2701835E-004 -5.9685008E-004     0.081585151     0.081581338  4.6738945E-003
       4.9500000  3.4921589E-004 -6.3336047E-004     0.084147461     0.084143291  4.9556684E-003
       5.1000000  3.7229675E-004 -6.7082086E-004     0.086710954     0.086706407  5.2442402E-003
       5.2500000  3.9627929E-004 -7.0921516E-004     0.089275666     0.089270721  5.5394381E-003
       5.4000000  4.2118233E-004 -7.4852677E-004     0.091841633     0.091836269  5.8410849E-003
       5.5500000  4.4702515E-004 -7.8873852E-004     0.094408891     0.094403086  6.1489979E-003
       5.7000000  4.7382746E-004 -8.2983275E-004     0.096977478     0.096971211  6.4629890E-003
       5.8500000  5.0160942E-004 -8.7179122E-004     0.099547429     0.099540677  6.7828649E-003
       6.0000000  5.3039163E-004 -9.1459516E-004      0.10211878      0.10211152  7.1084264E-003
       6.1500000  5.6019509E-004 -9.5822524E-004      0.10469157      0.10468378  7.4394692E-003
       6.3000000  5.9104121E-004 -1.0026616E-003      0.10726584      0.10725750  7.7757833E-003
       6.4500000  6.2295179E-004 -1.0478837E-003      0.10984161      0.10983270  8.1171532E-003
       6.6000000  6.5594903E-004 -1.0938706E-003      0.11241893      0.11240942  8.4633579E-003
       6.7500000  6.9005549E-004 -1.1406007E-003      0.11499784      0.11498771  8.8141708E-003
       6.9000000  7.2529410E-004 -1.1880519E-003      0.11757837      0.11756759  9.1693596E-003
       7.0500000  7.6168811E-004 -1.2362012E-003      0.12016056      0.12014911  9.5286866E-003
       7.2000000  7.9926113E-004 -1.2850255E-003      0.12274445      0.12273231  9.8919083E-003
       7.3500000  8.3803705E-004 -1.3345007E-003      0.12533006      0.12531721     0.010258775
       7.5000000  8.7804010E-004 -1.3846022E-003      0.12791745      0.12790386     0.010629033
       7.6500000  9.1929476E-004 -1.4353049E-003      0.13050665      0.13049229     0.011002421
       7.8000000  9.6182580E-004 -1.4865830E-003      0.13309768      0.13308254     0.011378672
       7.9500000  1.0056582E-003 -1.5384100E-003      0.13569060      0.13567465     0.011757516
       8.1000000  1.0508172E-003 -1.5907589E-003      0.13828544      0.13826866     0.012138672
       8.2500000  1.0973283E-003 -1.6436019E-003      0.14088224      0.14086460     0.012521859
       8.4000000  1.1452171E-003 -1.6969106E-003      0.14348103      0.14346251     0.012906786
       8.5500000  1.1945093E-003 -1.7506561E-003      0.14608185      0.14606244     0.013293158
       8.7000000  1.2452310E-003 -1.8048086E-003      0.14868474      0.14866441     0.013680674
       8.8500000  1.2974082E-003 -1.8593377E-003      0.15128974      0.15126846     0.014069025
       9.0000000  1.3510670E-003 -1.9142123E-003      0.15389689      0.15387464     0.014457900
       9.1500000  1.4062337E-003 -1.9694007E-003      0.15650621      0.15648298     0.014846978
       9.3000000  1.4629346E-003 -2.0248704E-003      0.15911776      0.15909352     0.015235935
       9.4500000  1.5211958E-003 -2.0805882E-003      0.16173157      0.16170630     0.015624439
       9.6000000  1.5810438E-003 -2.1365201E-003      0.16434768      0.16432136     0.016012153
       9.7500000  1.6425047E-003 -2.1926315E-003      0.16696612      0.16693874     0.016398733
       9.9000000  1.7056046E-003 -2.2488869E-003      0.16958693      0.16955847     0.016783830
       10.050000  1.7703696E-003 -2.3052501E-003      0.17221016      0.17218060     0.017167088
       10.200000  1.8368255E-003 -2.3616842E-003      0.17483584      0.17480516     0.017548145
       10.350000  1.9049981E-003 -2.4181514E-003      0.17746400      0.17743220     0.017926634
       10.500000  1.9749127E-003 -2.4746133E-003      0.18009470      0.18006175     0.018302179
       10.650000  2.0465947E-003 -2.5310303E-003      0.18272796      0.18269385     0.018674402
       10.800000  2.1200688E-003 -2.5873624E-003      0.18536383      0.18532854     0.019042914
       10.950000  2.1953596E-003 -2.6435685E-003      0.18800235      0.18796587     0.019407323
       11.100000  2.2724912E-003 -2.6996067E-003      0.19064355      0.19060587     0.019767229
       11.250000  2.3514873E-003 -2.7554344E-003      0.19328747      0.19324858     0.020122227
       11.400000  2.4323712E-003 -2.8110078E-003      0.19593416      0.19589405     0.020471905
       11.550000  2.5151653E-003 -2.8662825E-003      0.19858364      0.19854231     0.020815845
       11.700000  2.5998917E-003 -2.9212131E-003      0.20123597      0.20119341     0.021153621
       11.850000  2.6865717E-003 -2.9757531E-003      0.20389118      0.20384739     0.021484803
       12.000000  2.7752259E-003 -3.0298554E-003      0.20654931      0.20650428     0.021808953
       12.150000  2.8658743E-003 -3.0834716E-003      0.20921041      0.20916413     0.022125627
       12.300000  2.9585355E-003 -3.1365525E-003      0.21187450      0.21182698     0.022434374
       12.450000  3.0532278E-003 -3.1890479E-003      0.21454163      0.21449287     0.022734737
       12.600000  3.1499681E-003 -3.2409066E-003      0.21721185      0.21716184     0.023026253
       12.750000  3.2487723E-003 -3.2920762E-003      0.21988518      0.21983394     0.023308452
       12.900000  3.3496551E-003 -3.3425036E-003      0.22256168      0.22250921     0.023580857
       13.050000  3.4526302E-003 -3.3921342E-003      0.22524138      0.22518769     0.023842985
       13.200000  3.5577095E-003 -3.4409126E-003      0.22792433      0.22786942     0.024094346
       13.350000  3.6649038E-003 -3.4887822E-003      0.23061055      0.23055445     0.024334444
       13.500000  3.7742224E-003 -3.5356852E-003      0.23330011      0.23324281     0.024562775
       13.650000  3.8856728E-003 -3.5815628E-003      0.23599302      0.23593456     0.024778831
       13.800000  3.9992609E-003 -3.6263549E-003      0.23868935      0.23862973     0.024982094
       13.950000  4.1149905E-003 -3.6700002E-003      0.24138912      0.24132837     0.025172043
       14.100000  4.2328638E-003 -3.7124363E-003      0.24409238      0.24403052     0.025348147
       14.250000  4.3528807E-003 -3.7535992E-003      0.24679918      0.24673623     0.025509870
       14.400000  4.4750389E-003 -3.7934242E-003      0.24950954      0.24944554     0.025656669
       14.550000  4.5993337E-003 -3.8318446E-003      0.25222352      0.25215850     0.025787995
       14.700000  4.7257581E-003 -3.8687930E-003      0.25494116      0.25487514     0.025903290
       14.850000  4.8543022E-003 -3.9042002E-003      0.25766250      0.25759552     0.026001993
       15.000000  4.9849536E-003 -3.9379959E-003      0.26038757      0.26031967     0.026083532

Table series: Data for wavelength : 0.656273 µm.
   Y Angle (deg)       Tan Shift       Sag Shift     Real Height     Ref. Height      Distortion
  --------------  --------------  --------------  --------------  --------------  --------------
      0.00000000  1.0828751E-003  1.0828751E-003      0.00000000      0.00000000      0.00000000
      0.15000000  1.0833852E-003  1.0822605E-003  2.5432864E-003  2.5432862E-003  4.5725735E-006
      0.30000000  1.0844431E-003  1.0804172E-003  5.0866083E-003  5.0866074E-003  1.8288446E-005
      0.45000000  1.0860496E-003  1.0773457E-003  7.6300013E-003  7.6299982E-003  4.1139742E-005
      0.60000000  1.0882062E-003  1.0730472E-003     0.010173501     0.010173494  7.3113722E-005
      0.75000000  1.0909150E-003  1.0675233E-003     0.012717143     0.012717129  1.1419255E-004
      0.90000000  1.0941785E-003  1.0607761E-003     0.015260963     0.015260938  1.6435329E-004
       1.0500000  1.0980002E-003  1.0528081E-003     0.017804996     0.017804956  2.2356790E-004
       1.2000000  1.1023837E-003  1.0436221E-003     0.020349278     0.020349219  2.9180322E-004
       1.3500000  1.1073335E-003  1.0332217E-003     0.022893845     0.022893761  3.6902101E-004
       1.5000000  1.1128547E-003  1.0216108E-003     0.025438732     0.025438616  4.5517788E-004
       1.6500000  1.1189527E-003  1.0087936E-003     0.027983975     0.027983821  5.5022532E-004
       1.8000000  1.1256337E-003  9.9477508E-004     0.030529609     0.030529410  6.5410970E-004
       1.9500000  1.1329046E-003  9.7956039E-004     0.033075671     0.033075417  7.6677225E-004
       2.1000000  1.1407725E-003  9.6315531E-004     0.035622195     0.035621879  8.8814906E-004
       2.2500000  1.1492454E-003  9.4556602E-004     0.038169218     0.038168829  1.0181710E-003
       2.4000000  1.1583318E-003  9.2679921E-004     0.040716774     0.040716303  1.1567640E-003
       2.5500000  1.1680406E-003  9.0686201E-004     0.043264901     0.043264337  1.3038484E-003
       2.7000000  1.1783815E-003  8.8576202E-004     0.045813633     0.045812965  1.4593397E-003
       2.8500000  1.1893646E-003  8.6350732E-004     0.048363007     0.048362222  1.6231482E-003
       3.0000000  1.2010006E-003  8.4010648E-004     0.050913057     0.050912143  1.7951788E-003
       3.1500000  1.2133009E-003  8.1556852E-004     0.053463821     0.053462765  1.9753313E-003
       3.3000000  1.2262773E-003  7.8990295E-004     0.056015333     0.056014122  2.1635002E-003
       3.4500000  1.2399420E-003  7.6311977E-004     0.058567630     0.058566249  2.3595747E-003
       3.6000000  1.2543081E-003  7.3522945E-004     0.061120748     0.061119181  2.5634390E-003
       3.7500000  1.2693891E-003  7.0624296E-004     0.063674722     0.063672955  2.7749716E-003
       3.9000000  1.2851989E-003  6.7617175E-004     0.066229588     0.066227606  2.9940462E-003
       4.0500000  1.3017520E-003  6.4502778E-004     0.068785383     0.068783168  3.2205307E-003
       4.2000000  1.3190636E-003  6.1282348E-004     0.071342142     0.071339678  3.4542879E-003
       4.3500000  1.3371492E-003  5.7957179E-004     0.073899902     0.073897171  3.6951754E-003
       4.5000000  1.3560249E-003  5.4528616E-004     0.076458698     0.076455683  3.9430451E-003
       4.6500000  1.3757074E-003  5.0998055E-004     0.079018567     0.079015250  4.1977437E-003
       4.8000000  1.3962136E-003  4.7366942E-004     0.081579545     0.081575907  4.4591125E-003
       4.9500000  1.4175613E-003  4.3636773E-004     0.084141667     0.084137690  4.7269873E-003
       5.1000000  1.4397686E-003  3.9809099E-004     0.086704971     0.086700635  5.0011985E-003
       5.2500000  1.4628539E-003  3.5885522E-004     0.089269493     0.089264778  5.2815710E-003
       5.4000000  1.4868365E-003  3.1867694E-004     0.091835268     0.091830155  5.5679242E-003
       5.5500000  1.5117357E-003  2.7757324E-004     0.094402334     0.094396802  5.8600720E-003
       5.7000000  1.5375715E-003  2.3556172E-004     0.096970726     0.096964755  6.1578229E-003
       5.8500000  1.5643645E-003  1.9266053E-004     0.099540482     0.099534051  6.4609795E-003
       6.0000000  1.5921353E-003  1.4888837E-004      0.10211164      0.10210473  6.7693390E-003
       6.1500000  1.6209054E-003  1.0426448E-004      0.10468423      0.10467681  7.0826932E-003
       6.3000000  1.6506965E-003  5.8808661E-005      0.10725829      0.10725036  7.4008279E-003
       6.4500000  1.6815305E-003  1.2541269E-005      0.10983387      0.10982538  7.7235234E-003
       6.6000000  1.7134302E-003 -3.4516767E-005      0.11241099      0.11240194  8.0505543E-003
       6.7500000  1.7464183E-003 -8.2343946E-005      0.11498969      0.11498005  8.3816896E-003
       6.9000000  1.7805180E-003 -1.3091819E-004      0.11757001      0.11755977  8.7166923E-003
       7.0500000  1.8157531E-003 -1.8021684E-004      0.12015199      0.12014112  9.0553199E-003
       7.2000000  1.8521475E-003 -2.3021663E-004      0.12273567      0.12272414  9.3973239E-003
       7.3500000  1.8897255E-003 -2.8089371E-004      0.12532107      0.12530887  9.7424500E-003
       7.5000000  1.9285116E-003 -3.3222364E-004      0.12790825      0.12789534     0.010090438
       7.6500000  1.9685309E-003 -3.8418133E-004      0.13049722      0.13048360     0.010441022
       7.8000000  2.0098083E-003 -4.3674110E-004      0.13308805      0.13307368     0.010793931
       7.9500000  2.0523695E-003 -4.8987664E-004      0.13568075      0.13566562     0.011148886
       8.1000000  2.0962400E-003 -5.4356099E-004      0.13827536      0.13825946     0.011505603
       8.2500000  2.1414459E-003 -5.9776657E-004      0.14087193      0.14085522     0.011863793
       8.4000000  2.1880132E-003 -6.5246514E-004      0.14347050      0.14345296     0.012223160
       8.5500000  2.2359681E-003 -7.0762779E-004      0.14607109      0.14605271     0.012583403
       8.7000000  2.2853373E-003 -7.6322496E-004      0.14867375      0.14865451     0.012944212
       8.8500000  2.3361472E-003 -8.1922641E-004      0.15127852      0.15125839     0.013305274
       9.0000000  2.3884246E-003 -8.7560121E-004      0.15388542      0.15386440     0.013666269
       9.1500000  2.4421964E-003 -9.3231773E-004      0.15649451      0.15647256     0.014026870
       9.3000000  2.4974892E-003 -9.8934365E-004      0.15910582      0.15908293     0.014386745
       9.4500000  2.5543302E-003 -1.0466459E-003      0.16171938      0.16169554     0.014745555
       9.6000000  2.6127461E-003 -1.1041908E-003      0.16433524      0.16431043     0.015102954
       9.7500000  2.6727638E-003 -1.1619437E-003      0.16695343      0.16692763     0.015458592
       9.9000000  2.7344103E-003 -1.2198695E-003      0.16957399      0.16954719     0.015812110
       10.050000  2.7977121E-003 -1.2779322E-003      0.17219697      0.17216914     0.016163145
       10.200000  2.8626960E-003 -1.3360948E-003      0.17482239      0.17479352     0.016511325
       10.350000  2.9293883E-003 -1.3943200E-003      0.17745029      0.17742039     0.016856275
       10.500000  2.9978154E-003 -1.4525694E-003      0.18008072      0.18004976     0.017197609
       10.650000  3.0680031E-003 -1.5108038E-003      0.18271372      0.18268169     0.017534939
       10.800000  3.1399773E-003 -1.5689831E-003      0.18534932      0.18531620     0.017867869
       10.950000  3.2137634E-003 -1.6270668E-003      0.18798756      0.18795336     0.018195995
       11.100000  3.2893864E-003 -1.6850130E-003      0.19062848      0.19059318     0.018518907
       11.250000  3.3668708E-003 -1.7427793E-003      0.19327212      0.19323572     0.018836190
       11.400000  3.4462409E-003 -1.8003223E-003      0.19591852      0.19588101     0.019147421
       11.550000  3.5275203E-003 -1.8575977E-003      0.19856772      0.19852910     0.019452170
       11.700000  3.6107320E-003 -1.9145604E-003      0.20121975      0.20118002     0.019750001
       11.850000  3.6958985E-003 -1.9711643E-003      0.20387467      0.20383382     0.020040472
       12.000000  3.7830414E-003 -2.0273623E-003      0.20653250      0.20649053     0.020323133
       12.150000  3.8721817E-003 -2.0831065E-003      0.20919328      0.20915020     0.020597527
       12.300000  3.9633395E-003 -2.1383479E-003      0.21185707      0.21181288     0.020863192
       12.450000  4.0565342E-003 -2.1930366E-003      0.21452389      0.21447859     0.021119657
       12.600000  4.1517840E-003 -2.2471217E-003      0.21719378      0.21714739     0.021366446
       12.750000  4.2491062E-003 -2.3005511E-003      0.21986680      0.21981931     0.021603075
       12.900000  4.3485168E-003 -2.3532720E-003      0.22254297      0.22249440     0.021829052
       13.050000  4.4500309E-003 -2.4052301E-003      0.22522234      0.22517270     0.022043882
       13.200000  4.5536620E-003 -2.4563705E-003      0.22790494      0.22785425     0.022247058
       13.350000  4.6594225E-003 -2.5066368E-003      0.23059083      0.23053910     0.022438070
       13.500000  4.7673231E-003 -2.5559717E-003      0.23328004      0.23322729     0.022616399
       13.650000  4.8773730E-003 -2.6043166E-003      0.23597260      0.23591885     0.022781520
       13.800000  4.9895799E-003 -2.6516118E-003      0.23866857      0.23861385     0.022932899
       13.950000  5.1039494E-003 -2.6977966E-003      0.24136798      0.24131231     0.023069997
       14.100000  5.2204855E-003 -2.7428086E-003      0.24407087      0.24401428     0.023192267
       14.250000  5.3391900E-003 -2.7865848E-003      0.24677729      0.24671981     0.023299155
       14.400000  5.4600625E-003 -2.8290603E-003      0.24948728      0.24942894     0.023390100
       14.550000  5.5831006E-003 -2.8701694E-003      0.25220087      0.25214171     0.023464533
       14.700000  5.7082992E-003 -2.9098447E-003      0.25491812      0.25485817     0.023521878
       14.850000  5.8356509E-003 -2.9480178E-003      0.25763906      0.25757837     0.023561554
       15.000000  5.9651453E-003 -2.9846186E-003      0.26036373      0.26030234     0.023582968
