Results for:	
File:	C:\Users\User\OneDrive - Massachusetts Institute of Technology\Documents\MIT\Grad School\Classes\2.156\Lens Project\Prime Lenses\US09274322-1.zmx
Title:	
Date:	11/7/2025 5:51:35 PM

0 message(s) in output.
3 series table(s) in output.

Table series: Data for wavelength : 0.486133 µm.
   Y Angle (deg)       Tan Shift       Sag Shift     Real Height     Ref. Height      Distortion
  --------------  --------------  --------------  --------------  --------------  --------------
      0.00000000    -0.019786760    -0.019786760      0.00000000      0.00000000      0.00000000
      0.89000000    -0.019479694    -0.019672164     0.020514339     0.020518828    -0.021877786
       1.7800000    -0.018555433    -0.019329136     0.041011688     0.041047561    -0.087394509
       2.6700000    -0.017024376    -0.018759940     0.061475265     0.061596126     -0.19621525
       3.5600000    -0.014903616    -0.017968310     0.081888693     0.082174484     -0.34778558
       4.4500000    -0.012216571    -0.016959385      0.10223620      0.10279266     -0.54134169
       5.3400000 -8.9924719E-003    -0.015739625      0.12250279      0.12346075     -0.77592238
       6.2300000 -5.2657472E-003    -0.014316704      0.14267441      0.14418894      -1.0503839
       7.1200000 -1.0753091E-003    -0.012699392      0.16273809      0.16498756      -1.3634174
       8.0100000  3.5362208E-003    -0.010897419      0.18268210      0.18586706      -1.7135683
       8.9000000  8.5233263E-003 -8.9213308E-003      0.20249597      0.20683804      -2.0992572
       9.7900000     0.013838422 -6.7823401E-003      0.22217066      0.22791130      -2.5188018
       10.680000     0.019432665 -4.4921739E-003      0.24169853      0.24909783      -2.9704396
       11.570000     0.025256724 -2.0629249E-003      0.26107342      0.27040888      -3.4523500
       12.460000     0.031261494  4.9309224E-004      0.28029060      0.29185590      -3.9626763
       13.350000     0.037398732  3.1634773E-003      0.29934682      0.31345068      -4.4995467
       14.240000     0.043621602  5.9358692E-003      0.31824021      0.33520526      -5.0610935
       15.130000     0.049885134  8.7980592E-003      0.33697026      0.35713205      -5.6454714
       16.020000     0.056146570     0.011738089      0.35553777      0.37924382      -6.2508730
       16.910000     0.062365630     0.014744337      0.37394472      0.40155372      -6.8755429
       17.800000     0.068504674     0.017805586      0.39219426      0.42407536      -7.5177900
       18.690000     0.074528785     0.020911080      0.41029056      0.44682278      -8.1759964
       19.580000     0.080405773     0.024050568      0.42823876      0.46981054      -8.8486259
       20.470000     0.086106124     0.027214331      0.44604488      0.49305376      -9.5342292
       21.360000     0.091602880     0.030393199      0.46371572      0.51656812      -10.231448
       22.250000     0.096871492     0.033578561      0.48125877      0.54036994      -10.939019
       23.140000      0.10188963     0.036762362      0.49868219      0.56447625      -11.655771
       24.030000      0.10663695     0.039937095      0.51599466      0.58890477      -12.380628
       24.920000      0.11109492     0.043095782      0.53320536      0.61367405      -13.112610
       25.810000      0.11524652     0.046231959      0.55032394      0.63880347      -13.850823
       26.700000      0.11907602     0.049339644      0.56736038      0.66431335      -14.594464
       27.590000      0.12256875     0.052413315      0.58432505      0.69022500      -15.342815
       28.480000      0.12571084     0.055447875      0.60122862      0.71656078      -16.095238
       29.370000      0.12848901     0.058438625      0.61808201      0.74334424      -16.851173
       30.260000      0.13089029     0.061381227      0.63489644      0.77060013      -17.610131
       31.150000      0.13290184     0.064271671      0.65168335      0.79835460      -18.371693
       32.040000      0.13451067     0.067106246      0.66845440      0.82663522      -19.135504
       32.930000      0.13570351     0.069881500      0.68522152      0.85547113      -19.901269
       33.820000      0.13646648     0.072594213      0.70199686      0.88489321      -20.668747
       34.710000      0.13678498     0.075241364      0.71879283      0.91493413      -21.437751
       35.600000      0.13664338     0.077820094      0.73562209      0.94562862      -22.208140
       36.490000      0.13602484     0.080327684      0.75249763      0.97701354      -22.979815
       37.380000      0.13491109     0.082761515      0.76943274       1.0091281      -23.752720
       38.270000      0.13328214     0.085119045      0.78644110       1.0420142      -24.526832
       39.160000      0.13111603     0.087397775      0.80353680       1.0757163      -25.302161
       40.050000      0.12838858     0.089595222      0.82073441       1.1102821      -26.078749
       40.940000      0.12507304     0.091708888      0.83804903       1.1457626      -26.856659
       41.830000      0.12113979     0.093736229      0.85549641       1.1822124      -27.635979
       42.720000      0.11655595     0.095674624      0.87309299       1.2196901      -28.416817
       43.610000      0.11128499     0.097521348      0.89085602       1.2582587      -29.199294
       44.500000      0.10528630     0.099273531      0.90880371       1.2979859      -29.983547
       45.390000     0.098514646      0.10092813      0.92695531       1.3389449      -30.769722
       46.280000     0.090919715      0.10248189      0.94533131       1.3812146      -31.557970
       47.170000     0.082445482      0.10393131      0.96395358       1.4248803      -32.348450
       48.060000     0.073029631      0.10527257      0.98284560       1.4700344      -33.141320
       48.950000     0.062602918      0.10650155       1.0020326       1.5167774      -33.936737
       49.840000     0.051088564      0.10761371       1.0215420       1.5652184      -34.734856
       50.730000     0.038401703      0.10860409       1.0414034       1.6154763      -35.535826
       51.620000     0.024448989      0.10946722       1.0616492       1.6676810      -36.339792
       52.510000  9.1284880E-003      0.11019708       1.0823145       1.7219745      -37.146893
       53.400000 -7.6699274E-003      0.11078702       1.1034379       1.7785127      -37.957265
       54.290000    -0.026063341      0.11122973       1.1250616       1.8374666      -38.771048
       55.180000    -0.046173201      0.11151716       1.1472315       1.8990250      -39.588391
       56.070000    -0.068120601      0.11164052       1.1699980       1.9633959      -40.409473
       56.960000    -0.092018270      0.11159024       1.1934153       2.0308101      -41.234521
       57.850000     -0.11795759      0.11135600       1.2175417       2.1015233      -42.063852
       58.740000     -0.14598827      0.11092696       1.2424388       2.1758207      -42.897926
       59.630000     -0.17608751      0.11029192       1.2681700       2.2540206      -43.737426
       60.520000     -0.20811472      0.10943989       1.2947980       2.3364795      -44.583378
       61.410000     -0.24174801      0.10836089       1.3223805       2.4235984      -45.437312
       62.300000     -0.27640031      0.10704722       1.3509632       2.5158296      -46.301485
       63.190000     -0.31111904      0.10549534       1.3805705       2.6136853      -47.179163
       64.080000     -0.34448657      0.10370842       1.4111917       2.7177480      -48.074961
       64.970000     -0.37456036      0.10169961       1.4427644       2.8286829      -48.995187
       65.860000     -0.39891905     0.099495537       1.4751559       2.9472531      -49.948109
       66.750000     -0.41489208     0.097139257       1.5081484       3.0743386      -50.943972
       67.640000     -0.42001224     0.094691357       1.5414335       3.2109591      -51.994608
       68.530000     -0.41261587     0.092227687       1.5746245       3.3583035      -53.112501
       69.420000     -0.39236936     0.089833186       1.6072884       3.5177660      -54.309400
       70.310000     -0.36045197     0.087592778       1.6389930       3.6909930      -55.594794
       71.200000     -0.31927386     0.085581893       1.6693552       3.8799422      -56.974741
       72.090000     -0.27186713     0.083859424       1.6980763       4.0869606      -58.451366
       72.980000     -0.22123961     0.082464694       1.7249571       4.3148857      -60.023111
       73.870000     -0.16992387     0.081418222       1.7498931       4.5671811      -61.685490
       74.760000     -0.11978896     0.080724909       1.7728582       4.8481195      -63.432045
       75.650000    -0.072054441     0.080378133       1.7938838       5.1630333      -65.255235
       76.540000    -0.027408541     0.080363646       1.8130389       5.5186649      -67.147146
       77.430000     0.013846893     0.080662764       1.8304147       5.9236663      -69.099969
       78.320000     0.051666567     0.081254707       1.8461125       6.3893263      -71.106305
       79.210000     0.086161601     0.082118204       1.8602360       6.9306578      -73.159316
       80.100000      0.11752912     0.083232510       1.8728866       7.5680724      -75.252793
       80.990000      0.14600592     0.084578007       1.8841601       8.3300462      -77.381157
       81.880000      0.17183962     0.086136524       1.8941456       9.2575394      -79.539427
       82.770000      0.19527177     0.087891467       1.9029246       10.411681      -81.723175
       83.660000      0.21652870     0.089827837       1.9105710       11.887923      -83.928471
       84.550000      0.23581715     0.091932173       1.9171512       13.844070      -86.151823
       85.440000      0.25332289     0.094192467       1.9227249       16.561121      -88.390128
       86.330000      0.26921103     0.096598040       1.9273451       20.592652      -90.640617
       87.220000      0.28362714     0.099139432       1.9310590       27.201139      -92.900815
       88.110000      0.29669894      0.10180827       1.9339083       40.027043      -95.168496
       89.000000      0.30853804      0.10459715       1.9359296       75.670878      -97.441645

Table series: Data for wavelength : 0.587562 µm.
   Y Angle (deg)       Tan Shift       Sag Shift     Real Height     Ref. Height      Distortion
  --------------  --------------  --------------  --------------  --------------  --------------
      0.00000000  2.6845616E-003  2.6845616E-003      0.00000000      0.00000000      0.00000000
      0.89000000  2.9946303E-003  2.8002288E-003     0.020544565     0.020549090    -0.022020241
       1.7800000  3.9278313E-003  3.1464586E-003     0.041071939     0.041108100    -0.087966005
       2.6700000  5.4735982E-003  3.7209485E-003     0.061565143     0.061686971     -0.19749413
       3.5600000  7.6145591E-003  4.5199047E-003     0.082007613     0.082295679     -0.35003885
       4.4500000     0.010326921  5.5381058E-003      0.10238340      0.10294426     -0.54482082
       5.3400000     0.013580991  6.7689899E-003      0.12267736      0.12364283     -0.78085941
       6.2300000     0.017341807  8.2047616E-003      0.14287529      0.14440160      -1.0569881
       7.1200000     0.021569870  9.8365163E-003      0.16296414      0.16523089      -1.3718720
       8.0100000     0.026221934     0.011654378      0.18293206      0.18614118      -1.7240284
       8.9000000     0.031251841     0.013647646      0.20276855      0.20714309      -2.1118477
       9.7900000     0.036611360     0.015804949      0.22246452      0.22824743      -2.5336160
       10.680000     0.042251022     0.018114398      0.24201235      0.24946522      -2.9875386
       11.570000     0.048120898     0.020563743      0.26140589      0.27080769      -3.4717623
       12.460000     0.054171329     0.023140512      0.28064050      0.29228635      -3.9843985
       13.350000     0.060353570     0.025832157      0.29971298      0.31391297      -4.5235438
       14.240000     0.066620345     0.028626179      0.31862159      0.33569964      -5.0873004
       15.130000     0.072926301     0.031510239      0.33736594      0.35765877      -5.6737943
       16.020000     0.079228369     0.034472263      0.35594698      0.37980315      -6.2811913
       16.910000     0.085486015     0.037500524      0.37436687      0.40214595      -6.9077114
       17.800000     0.091661409     0.040583715      0.39262893      0.42470080      -7.5516406
       18.690000     0.097719496     0.043711003      0.41073752      0.44748177      -8.2113407
       19.580000      0.10362800     0.046872072      0.42869800      0.47050344      -8.8852572
       20.470000      0.10935736     0.050057151      0.44651660      0.49378094      -9.5719250
       21.360000      0.11488060     0.053257031      0.46420033      0.51732998      -10.269972
       22.250000      0.12017318     0.056463073      0.48175694      0.54116691      -10.978122
       23.140000      0.12521282     0.059667204      0.49919480      0.56530877      -11.695196
       24.030000      0.12997922     0.062861908      0.51652283      0.58977332      -12.420108
       24.920000      0.13445387     0.066040206      0.53375047      0.61457912      -13.151872
       25.810000      0.13861981     0.069195642      0.55088758      0.63974561      -13.889588
       26.700000      0.14246137     0.072322246      0.56794443      0.66529312      -14.632451
       27.590000      0.14596388     0.075414515      0.58493161      0.69124298      -15.379739
       28.480000      0.14911350     0.078467376      0.60186006      0.71761760      -16.130811
       29.370000      0.15189693     0.081476155      0.61874098      0.74444056      -16.885106
       30.260000      0.15430115     0.084436544      0.63558582      0.77173665      -17.642136
       31.150000      0.15631327     0.087344564      0.65240632      0.79953206      -18.401481
       32.040000      0.15792020     0.090196536      0.66921442      0.82785438      -19.162786
       32.930000      0.15910851     0.092989043      0.68602234      0.85673283      -19.925756
       33.820000      0.15986417     0.095718898      0.70284252      0.88619829      -20.690151
       34.710000      0.16017234     0.098383111      0.71968770      0.91628353      -21.455785
       35.600000      0.16001712      0.10097886      0.73657087      0.94702328      -22.222517
       36.490000      0.15938136      0.10350345      0.75350536      0.97845449      -22.990249
       37.380000      0.15824639      0.10595429      0.77050484       1.0106164      -23.758924
       38.270000      0.15659178      0.10832887      0.78758336       1.0435510      -24.528520
       39.160000      0.15439507      0.11062472      0.80475545       1.0773028      -25.299047
       40.050000      0.15163149      0.11283937      0.82203612       1.1119196      -26.070542
       40.940000      0.14827363      0.11497034      0.83944095       1.1474524      -26.843070
       41.830000      0.14429112      0.11701511      0.85698620       1.1839560      -27.616716
       42.720000      0.13965024      0.11897105      0.87468889       1.2214889      -28.391583
       43.610000      0.13431356      0.12083545      0.89256688       1.2601144      -29.167790
       44.500000      0.12823942      0.12260545      0.91063904       1.2999003      -29.945469
       45.390000      0.12138152      0.12427798      0.92892535       1.3409197      -30.724758
       46.280000      0.11368836      0.12584980      0.94744710       1.3832517      -31.505806
       47.170000      0.10510271      0.12731736      0.96622704       1.4269818      -32.288760
       48.060000     0.095561040      0.12867686      0.98528958       1.4722025      -33.073772
       48.950000     0.084992960      0.12992412       1.0046611       1.5190144      -33.860991
       49.840000     0.073320742      0.13105458       1.0243700       1.5675268      -34.650563
       50.730000     0.060458938      0.13206325       1.0444471       1.6178589      -35.442628
       51.620000     0.046314266      0.13294461       1.0649263       1.6701405      -36.237326
       52.510000     0.030785916      0.13369263       1.0858440       1.7245142      -37.034789
       53.400000     0.013766569      0.13430065       1.1072402       1.7811357      -37.835157
       54.290000 -4.8554392E-003      0.13476137       1.1291586       1.8401766      -38.638574
       55.180000    -0.025192166      0.13506679       1.1516465       1.9018258      -39.445213
       56.070000    -0.047349349      0.13520826       1.1747553       1.9662917      -40.255286
       56.960000    -0.071415542      0.13517643       1.1985400       2.0338052      -41.069087
       57.850000    -0.097445107      0.13496144       1.2230587       2.1046228      -41.887034
       58.740000     -0.12543239      0.13455311       1.2483718       2.1790298      -42.709741
       59.630000     -0.15527377      0.13394134       1.2745393       2.2573450      -43.538126
       60.520000     -0.18671395      0.13311681       1.3016174       2.3399255      -44.373552
       61.410000     -0.21927415      0.13207201       1.3296532       2.4271729      -45.218027
       62.300000     -0.25216379      0.13080282       1.3586757       2.5195401      -46.074457
       63.190000     -0.28418684      0.12931066       1.3886845       2.6175401      -46.946964
       64.080000     -0.31367171      0.12760530       1.4196349       2.7217563      -47.841219
       64.970000     -0.33847643      0.12570801       1.4514207       2.8328548      -48.764734
       65.860000     -0.35613881      0.12365454       1.4838585       2.9515999      -49.726975
       66.750000     -0.36422459      0.12149674       1.5166793       3.0788727      -50.739135
       67.640000     -0.36084763      0.11930157       1.5495335       3.2156948      -51.813414
       68.530000     -0.34520575      0.11714665       1.5820148       3.3632564      -52.961815
       69.420000     -0.31788770      0.11511264       1.6137007       3.5229542      -54.194672
       70.310000     -0.28077323      0.11327430       1.6441993       3.6964367      -55.519344
       71.200000     -0.23656249      0.11169301       1.6731882       3.8856646      -56.939458
       72.090000     -0.18816338      0.11041247       1.7004373       4.0929883      -58.454871
       72.980000     -0.13818650      0.10945819       1.7258103       4.3212495      -60.062240
       73.870000    -0.088671432      0.10883975       1.7492535       4.5739170      -61.755898
       74.760000    -0.041029587      0.10855435       1.7707769       4.8552698      -63.528764
       75.650000  3.8791910E-003      0.10859063       1.7904344       5.1706480      -65.373114
       76.540000     0.045617716      0.10893193       1.8083072       5.5268041      -67.281141
       77.430000     0.084042405      0.10955882       1.8244910       5.9324028      -69.245329
       78.320000      0.11919725      0.11045085       1.8390868       6.3987496      -71.258654
       79.210000      0.15123591      0.11158774       1.8521951       6.9408795      -73.314691
       80.100000      0.18036856      0.11295011       1.8639125       7.5792342      -75.407641
       80.990000      0.20682771      0.11451986       1.8743293       8.3423317      -77.532310
       81.880000      0.23084739      0.11628036       1.8835287       9.2711929      -79.684074
       82.770000      0.25265126      0.11821652       1.8915867       10.427037      -81.858827
       83.660000      0.27244642      0.12031478       1.8985719       11.905456      -84.052926
       84.550000      0.29042081      0.12256298       1.9045460       13.864488      -86.263135
       85.440000      0.30674266      0.12495032       1.9095641       16.585546      -88.486577
       86.330000      0.32156120      0.12746721       1.9136753       20.623023      -90.720685
       87.220000      0.33500795      0.13010518       1.9169232       27.241256      -92.963161
       88.110000      0.34719830      0.13285672       1.9193463       40.086077      -95.211938
       89.000000      0.35823323      0.13571521       1.9209785       75.782481      -97.465142

Table series: Data for wavelength : 0.656273 µm.
   Y Angle (deg)       Tan Shift       Sag Shift     Real Height     Ref. Height      Distortion
  --------------  --------------  --------------  --------------  --------------  --------------
      0.00000000     0.011203823     0.011203823      0.00000000      0.00000000      0.00000000
      0.89000000     0.011515183     0.011319950     0.020560336     0.020564876    -0.022079365
       1.7800000     0.012452230     0.011667551     0.041103395     0.041139681    -0.088200596
       2.6700000     0.014004326     0.012244309     0.061612116     0.061734361     -0.19801797
       3.5600000     0.016153976     0.013046405     0.082069854     0.082358902     -0.35096101
       4.4500000     0.018877226     0.014068579      0.10246059      0.10302335     -0.54624388
       5.3400000     0.022144180     0.015304228      0.12276910      0.12373782     -0.78287792
       6.2300000     0.025919646     0.016745502      0.14298115      0.14451253      -1.0596870
       7.1200000     0.030163868     0.018383439      0.16308362      0.16535783      -1.3753257
       8.0100000     0.034833328     0.020208100      0.18306463      0.18628418      -1.7282994
       8.9000000     0.039881587     0.022208718      0.20291367      0.20730223      -2.1169858
       9.7900000     0.045260134     0.024373851      0.22262162      0.22842278      -2.5396582
       10.680000     0.050919224     0.026691541      0.24218087      0.24965686      -2.9945083
       11.570000     0.056808667     0.029149468      0.26158528      0.27101573      -3.4796695
       12.460000     0.062878558     0.031735093      0.28083023      0.29251089      -3.9932398
       13.350000     0.069079932     0.034435804      0.29991257      0.31415413      -4.5333028
       14.240000     0.075365315     0.037239039      0.31883059      0.33595753      -5.0979483
       15.130000     0.081689185     0.040132405      0.33758397      0.35793353      -5.6852904
       16.020000     0.088008330     0.043103775      0.35617371      0.38009492      -6.2934838
       16.910000     0.094282102     0.046141377      0.37460205      0.40245490      -6.9207381
       17.800000      0.10047258     0.049233862      0.39287237      0.42502707      -7.5653301
       18.690000      0.10654464     0.052370365      0.41098915      0.44782554      -8.2256132
       19.580000      0.11246597     0.055540538      0.42895780      0.47086490      -8.9000254
       20.470000      0.11820697     0.058734587      0.44678466      0.49416028      -9.5870948
       21.360000      0.12374065     0.061943286      0.46447684      0.51772741      -10.285444
       22.250000      0.12904249     0.065157980      0.48204218      0.54158265      -10.993792
       23.140000      0.13409018     0.068370587      0.49948914      0.56574305      -11.710954
       24.030000      0.13886345     0.071573585      0.51682676      0.59022640      -12.435845
       24.920000      0.14334382     0.074759996      0.53406457      0.61505126      -13.167470
       25.810000      0.14751431     0.077923361      0.55121255      0.64023708      -13.904933
       26.700000      0.15135927     0.081057716      0.56828105      0.66580422      -14.647424
       27.590000      0.15486405     0.084157564      0.58528080      0.69177401      -15.394219
       28.480000      0.15801479     0.087217839      0.60222283      0.71816890      -16.144679
       29.370000      0.16079817     0.090233877      0.61911845      0.74501246      -16.898242
       30.260000      0.16320117     0.093201379      0.63597925      0.77232953      -17.654418
       31.150000      0.16521084     0.096116380      0.65281705      0.80014628      -18.412787
       32.040000      0.16681405     0.098975211      0.66964394      0.82849037      -19.172996
       32.930000      0.16799730      0.10177447      0.68647225      0.85739100      -19.934749
       33.820000      0.16874647      0.10451097      0.70331457      0.88687910      -20.697808
       34.710000      0.16904662      0.10718175      0.72018374      0.91698744      -21.461984
       35.600000      0.16888173      0.10978399      0.73709293      0.94775082      -22.227138
       36.490000      0.16823449      0.11231501      0.75405561      0.97920617      -22.993172
       37.380000      0.16708606      0.11477223      0.77108559       1.0113928      -23.760029
       38.270000      0.16541582      0.11715315      0.78819712       1.0443527      -24.527687
       39.160000      0.16320106      0.11945529      0.80540488       1.0781304      -25.296154
       40.050000      0.16041676      0.12167621      0.82272408       1.1127738      -26.065470
       40.940000      0.15703522      0.12381342      0.84017052       1.1483339      -26.835696
       41.830000      0.15302574      0.12586440      0.85776068       1.1848655      -27.606917
       42.720000      0.14835423      0.12782654      0.87551181       1.2224273      -28.379234
       43.610000      0.14298284      0.12969712      0.89344205       1.2610825      -29.152766
       44.500000      0.13686949      0.13147327      0.91157055       1.3008989      -29.927641
       45.390000      0.12996740      0.13315193      0.92991760       1.3419498      -30.703996
       46.280000      0.12222458      0.13472983      0.94850484       1.3843144      -31.481976
       47.170000      0.11358328      0.13620343      0.96735539       1.4280780      -32.261727
       48.060000      0.10397946      0.13756890      0.98649407       1.4733335      -33.043395
       48.950000     0.093342309      0.13882206       1.0059477       1.5201814      -33.827128
       49.840000     0.081593740      0.13995833       1.0257451       1.5687310      -34.613067
       50.730000     0.068648164      0.14097269       1.0459179       1.6191017      -35.401351
       51.620000     0.054412482      0.14185963       1.0665000       1.6714236      -36.192115
       52.510000     0.038786601      0.14261308       1.0875289       1.7258390      -36.985494
       53.400000     0.021664754      0.14322639       1.1090450       1.7825040      -37.781627
       54.290000  2.9381055E-003      0.14369225       1.1310925       1.8415903      -38.580665
       55.180000    -0.017500647      0.14400271       1.1537193       1.9032868      -39.382792
       56.070000    -0.039749622      0.14414917       1.1769771       1.9678022      -40.188242
       56.960000    -0.063885559      0.14412242       1.2009211       2.0353676      -40.997340
       57.850000    -0.089944966      0.14391279       1.2256091       2.1062396      -41.810556
       58.740000     -0.11789585      0.14351043       1.2511006       2.1807038      -42.628585
       59.630000     -0.14759671      0.14290578       1.2774537       2.2590791      -43.452457
       60.520000     -0.17873948      0.14209030       1.3047215       2.3417231      -44.283699
       61.410000     -0.21077500      0.14105765       1.3329454       2.4290375      -45.124544
       62.300000     -0.24282461      0.13980535       1.3621465       2.5214757      -45.978204
       63.190000     -0.27359268      0.13833705       1.3923127       2.6195510      -46.849185
       64.080000     -0.30131385      0.13666541       1.4233840       2.7238472      -47.743620
       64.970000     -0.32379068      0.13481512       1.4552351       2.8350311      -48.669517
       65.860000     -0.33858880      0.13282551       1.4876622       2.9538674      -49.636798
       66.750000     -0.34342583      0.13075156       1.5203768       3.0812380      -50.656950
       67.640000     -0.33669799      0.12866206       1.5530163       3.2181652      -51.742181
       68.530000     -0.31796314      0.12663434       1.5851717       3.3658402      -52.904131
       69.420000     -0.28814538      0.12474637       1.6164299       3.5256606      -54.152425
       70.310000     -0.24933473      0.12306823       1.6464190       3.6992764      -55.493486
       71.200000     -0.20427301      0.12165552       1.6748428       3.8886497      -56.929965
       72.090000     -0.15576778      0.12054620       1.7014977       4.0961326      -58.460875
       72.980000     -0.10625240      0.11976085       1.7262707       4.3245692      -60.082250
       73.870000    -0.057575681      0.11930531       1.7491261       4.5774309      -61.788039
       74.760000    -0.010984392      0.11917429       1.7700857       4.8589997      -63.570986
       75.650000     0.032785088      0.11935497       1.7892107       5.1746202      -65.423342
       76.540000     0.073378741      0.11983004       1.8065859       5.5310500      -67.337378
       77.430000      0.11070369      0.12057995       1.8223079       5.9369603      -69.305708
       78.320000      0.14483133      0.12158451       1.8364772       6.4036653      -71.321468
       79.210000      0.17592728      0.12282388       1.8491927       6.9462117      -73.378400
       80.100000      0.20420412      0.12427922       1.8605489       7.5850568      -75.470864
       80.990000      0.22989129      0.12593303       1.8706339       8.3487406      -77.593819
       81.880000      0.25321689      0.12776928       1.8795287       9.2783154      -79.742780
       82.770000      0.27439740      0.12977346       1.8873071       10.435047      -81.913765
       83.660000      0.29363249      0.13193251       1.8940356       11.914602      -84.103241
       84.550000      0.31110293      0.13423481       1.8997741       13.875139      -86.308071
       85.440000      0.32697033      0.13666998       1.9045760       16.598287      -88.525467
       86.330000      0.34137797      0.13922884       1.9084889       20.638867      -90.752937
       87.220000      0.35445210      0.14190329       1.9115550       27.262184      -92.988254
       88.110000      0.36630352      0.14468615       1.9138116       40.116872      -95.229410
       89.000000      0.37702921      0.14757107       1.9152914       75.840699      -97.474586
