Results for:	
File:	C:\Users\User\OneDrive - Massachusetts Institute of Technology\Documents\MIT\Grad School\Classes\2.156\Lens Project\Prime Lenses\US02983192-1.zmx
Title:	
Date:	11/7/2025 5:45:02 PM

0 message(s) in output.
3 series table(s) in output.

Table series: Data for wavelength : 0.486133 µm.
   Y Angle (deg)       Tan Shift       Sag Shift     Real Height     Ref. Height      Distortion
  --------------  --------------  --------------  --------------  --------------  --------------
      0.00000000     0.025203001     0.025203001      0.00000000      0.00000000      0.00000000
      0.30000000     0.025162678     0.025163555      0.13259002      0.13259003 -1.1531589E-005
      0.60000000     0.025042805     0.025045288      0.26518738      0.26518733  1.9851846E-005
      0.90000000     0.024843501     0.024848417      0.39779946      0.39779917  7.2043881E-005
       1.2000000     0.024564966     0.024573298      0.53043360      0.53043284  1.4491049E-004
       1.5000000     0.024207478     0.024220435      0.66309717      0.66309559  2.3822377E-004
       1.8000000     0.023771397     0.023790474      0.79579753      0.79579474  3.5170375E-004
       2.1000000     0.023257163     0.023284206      0.92854206      0.92853756  4.8500741E-004
       2.4000000     0.022665298     0.022702571       1.0613381       1.0613314  6.3772821E-004
       2.7000000     0.021996406     0.022046652       1.1941931       1.1941835  8.0939556E-004
       3.0000000     0.021251172     0.021317682       1.3271144       1.3271012  9.9947409E-004
       3.3000000     0.020430369     0.020517043       1.4601095       1.4600919  1.2073629E-003
       3.6000000     0.019534850     0.019646269       1.5931857       1.5931629  1.4323949E-003
       3.9000000     0.018565557     0.018707044       1.7263505       1.7263216  1.6738355E-003
       4.2000000     0.017523520     0.017701208       1.8596113       1.8595754  1.9308818E-003
       4.5000000     0.016409854     0.016630757       1.9929757       1.9929318  2.2026618E-003
       4.8000000     0.015225770     0.015497844       2.1264510       2.1263981  2.4882324E-003
       5.1000000     0.013972565     0.014304785       2.2600447       2.2599818  2.7865789E-003
       5.4000000     0.012651636     0.013054058       2.3937645       2.3936904  3.0966131E-003
       5.7000000     0.011264470     0.011748305       2.5276178       2.5275314  3.4171719E-003
       6.0000000  9.8126573E-003     0.010390340       2.6616121       2.6615124  3.7470160E-003
       6.3000000  8.2978853E-003  8.9831470E-003       2.7957552       2.7956410  4.0848276E-003
       6.6000000  6.7219457E-003  7.5298855E-003       2.9300545       2.9299247  4.4292092E-003
       6.9000000  5.0867353E-003  6.0338939E-003       3.0645176       3.0643712  4.7786815E-003
       7.2000000  3.3942595E-003  4.4986929E-003       3.1991524       3.1989882  5.1316814E-003
       7.5000000  1.6466350E-003  2.9279900E-003       3.3339663       3.3337834  5.4865598E-003
       7.8000000 -1.5390645E-004  1.3256832E-003       3.4689672       3.4687646  5.8415798E-003
       8.1000000 -2.0050154E-003 -3.0413425E-004       3.6041628       3.6039395  6.1949137E-003
       8.4000000 -3.9042203E-003 -1.9571689E-003       3.7395608       3.7393161  6.5446416E-003
       8.7000000 -5.8489238E-003 -3.6289223E-003       3.8751691       3.8749022  6.8887480E-003
       9.0000000 -7.8363986E-003 -5.3146856E-003       4.0109955       4.0107057  7.2251198E-003
       9.3000000 -9.8637832E-003 -7.0095338E-003       4.1470478       4.1467346  7.5515433E-003
       9.6000000    -0.011928077 -8.7083201E-003       4.2833339       4.2829970  7.8657017E-003
       9.9000000    -0.014026134    -0.010405669       4.4198619       4.4195010  8.1651719E-003
       10.200000    -0.016154661    -0.012095970       4.5566396       4.5562547  8.4474218E-003
       10.500000    -0.018310207    -0.013773370       4.6936751       4.6932663  8.7098072E-003
       10.800000    -0.020489162    -0.015431768       4.8309764       4.8305441  8.9495686E-003
       11.100000    -0.022687746    -0.017064805       4.9685517       4.9680964  9.1638279E-003
       11.400000    -0.024902006    -0.018665856       5.1064090       5.1059316  9.3495852E-003
       11.700000    -0.027127806    -0.020228021       5.2445566       5.2440582  9.5037156E-003
       12.000000    -0.029360820    -0.021744118       5.3830026       5.3824846  9.6229654E-003
       12.300000    -0.031596525    -0.023206671       5.5217553       5.5212195  9.7039489E-003
       12.600000    -0.033830190    -0.024607901       5.6608230       5.6602715  9.7431447E-003
       12.900000    -0.036056867    -0.025939714       5.8002141       5.7996494  9.7368922E-003
       13.200000    -0.038271381    -0.027193691       5.9399370       5.9393620  9.6813882E-003
       13.500000    -0.040468320    -0.028361074       6.0800001       6.0794182  9.5726829E-003
       13.800000    -0.042642023    -0.029432756       6.2204120       6.2198269  9.4066768E-003
       14.100000    -0.044786564    -0.030399264       6.3611811       6.3605973  9.1791169E-003
       14.400000    -0.046895746    -0.031250748       6.5023161       6.5017384  8.8855932E-003
       14.700000    -0.048963079    -0.031976964       6.6438256       6.6432595  8.5215358E-003
       15.000000    -0.050981766    -0.032567257       6.7857184       6.7851700  8.0822112E-003
       15.300000    -0.052944693    -0.033010548       6.9280031       6.9274792  7.5627194E-003
       15.600000    -0.054844399    -0.033295311       7.0706886       7.0701967  6.9579914E-003
       15.900000    -0.056673066    -0.033409558       7.2137839       7.2133321  6.2627861E-003
       16.200000    -0.058422496    -0.033340814       7.3572977       7.3568951  5.4716887E-003
       16.500000    -0.060084084    -0.033076103       7.5012391       7.5008956  4.5791088E-003
       16.800000    -0.061648793    -0.032601916       7.6456171       7.6453434  3.5792789E-003
       17.100000    -0.063107134    -0.031904192       7.7904408       7.7902487  2.4662539E-003
       17.400000    -0.064449126    -0.030968293       7.9357194       7.9356215  1.2339114E-003
       17.700000    -0.065664269    -0.029778970       8.0814622       8.0814722 -1.2404766E-004
       18.000000    -0.066741507    -0.028320340       8.2276784       8.2278112 -1.6140970E-003
       18.300000    -0.067669187    -0.026575849       8.3743774       8.3746490 -3.2428820E-003
       18.600000    -0.068435015    -0.024528241       8.5215686       8.5219961 -5.0172146E-003
       18.900000    -0.069026008    -0.022159520       8.6692615       8.6698635 -6.9440680E-003
       19.200000    -0.069428438    -0.019450910       8.8174657       8.8182620 -9.0305680E-003
       19.500000    -0.069627775    -0.016382812       8.9661908       8.9672026    -0.011283983
       19.800000    -0.069608615    -0.012934759       9.1154466       9.1166966    -0.013711710
       20.100000    -0.069354604 -9.0853678E-003       9.2652429       9.2667553    -0.016321262
       20.400000    -0.068848355 -4.8122787E-003       9.4155896       9.4173902    -0.019120243
       20.700000    -0.068071347 -9.2102454E-005       9.5664966       9.5686128    -0.022116327
       21.000000    -0.067003817  5.0996468E-003       9.7179741       9.7204351    -0.025317232
       21.300000    -0.065624628     0.010788622       9.8700323       9.8728688    -0.028730678
       21.600000    -0.063911128     0.017001721       10.022681       10.025926    -0.032364351
       21.900000    -0.061838978     0.023767171       10.175932       10.179620    -0.036225853
       22.200000    -0.059381958     0.031114626       10.329794       10.333961    -0.040322636
       22.500000    -0.056511735     0.039075271       10.484279       10.488964    -0.044661939
       22.800000    -0.053197600     0.047681939       10.639398       10.644640    -0.049250697
       23.100000    -0.049406145     0.056969247       10.795161       10.801004    -0.054095439
       23.400000    -0.045100891     0.066973744       10.951580       10.958067    -0.059202171
       23.700000    -0.040241833     0.077734083       11.108666       11.115844    -0.064576223
       24.000000    -0.034784899     0.089291218       11.266430       11.274348    -0.070222081
       24.300000    -0.028681289      0.10168863       11.424886       11.433592    -0.076143173
       24.600000    -0.021876667      0.11497258       11.584045       11.593591    -0.082341615
       24.900000    -0.014310164      0.12919245       11.743919       11.754359    -0.088817903
       25.200000 -5.9131388E-003      0.14440106       11.904523       11.915911    -0.095570543
       25.500000  3.3923864E-003      0.16065516       12.065868       12.078260     -0.10259559
       25.800000     0.013695706      0.17801591       12.227971       12.241423     -0.10988609
       26.100000     0.025099981      0.19654957       12.390845       12.405413     -0.11743138
       26.400000     0.037725549      0.21632829       12.554507       12.570247     -0.12521625
       26.700000     0.051714293      0.23743111       12.718974       12.735941     -0.13321984
       27.000000     0.067235481      0.25994529       12.884263       12.902509     -0.14141428
       27.300000     0.084493700      0.28396797       13.050394       13.069968     -0.14976297
       27.600000      0.10373983      0.30960847       13.217389       13.238335     -0.15821834
       27.900000      0.12528656      0.33699125       13.385273       13.407626     -0.16671896
       28.200000      0.14953072      0.36626023       13.554072       13.577859     -0.17518577
       28.500000      0.17698637      0.39758483       13.723818       13.749050     -0.18351704
       28.800000      0.20833519      0.43116899       13.894546       13.921217     -0.19158176
       29.100000      0.24450547      0.46726503       14.066300       14.094378     -0.19921086
       29.400000      0.28680036      0.50619609       14.239132       14.268551     -0.20618597
       29.700000      0.33711283      0.54839482       14.413102       14.443756     -0.21222623
       30.000000      0.39829239      0.59447524       14.588287       14.620009     -0.21697888

Table series: Data for wavelength : 0.587562 µm.
   Y Angle (deg)       Tan Shift       Sag Shift     Real Height     Ref. Height      Distortion
  --------------  --------------  --------------  --------------  --------------  --------------
      0.00000000     0.035225083     0.035225083      0.00000000      0.00000000      0.00000000
      0.30000000     0.035182800     0.035182387      0.13259710      0.13259709  8.7954097E-006
      0.60000000     0.035057390     0.035054372      0.26520154      0.26520145  3.5109256E-005
      0.90000000     0.034848971     0.034841247      0.39782066      0.39782035  7.8848098E-005
       1.2000000     0.034557741     0.034543362      0.53046181      0.53046107  1.3988655E-004
       1.5000000     0.034183980     0.034161210      0.66313234      0.66313089  2.1799311E-004
       1.8000000     0.033728044     0.033695423      0.79583959      0.79583710  3.1288849E-004
       2.1000000     0.033190373     0.033146775      0.92859092      0.92858698  4.2423054E-004
       2.4000000     0.032571485     0.032516185       1.0613937       1.0613879  5.5161381E-004
       2.7000000     0.031871981     0.031804714       1.1942553       1.1942470  6.9456894E-004
       3.0000000     0.031092546     0.031013566       1.3271831       1.3271718  8.5256203E-004
       3.3000000     0.030233946     0.030144095       1.4601846       1.4601696  1.0249939E-003
       3.6000000     0.029297033     0.029197800       1.5932670       1.5932477  1.2111994E-003
       3.9000000     0.028282742     0.028176329       1.7264379       1.7264135  1.4104462E-003
       4.2000000     0.027192099     0.027081482       1.8597046       1.8596744  1.6219341E-003
       4.5000000     0.026026214     0.025915210       1.9930746       1.9930379  1.8447937E-003
       4.8000000     0.024786290     0.024679620       2.1265554       2.1265112  2.0780854E-003
       5.1000000     0.023473619     0.023376976       2.2601545       2.2601021  2.3207980E-003
       5.4000000     0.022089588     0.022009700       2.3938794       2.3938178  2.5718473E-003
       5.7000000     0.020635677     0.020580378       2.5277375       2.5276659  2.8300750E-003
       6.0000000     0.019113466     0.019091759       2.6617364       2.6616541  3.0942466E-003
       6.3000000     0.017524632     0.017546761       2.7958838       2.7957898  3.3630500E-003
       6.6000000     0.015870954     0.015948472       2.9301871       2.9300806  3.6350940E-003
       6.9000000     0.014154318     0.014300155       3.0646541       3.0645343  3.9089061E-003
       7.2000000     0.012376713     0.012605251       3.1992923       3.1991585  4.1829306E-003
       7.5000000     0.010540241     0.010867382       3.3341094       3.3339609  4.4555270E-003
       7.8000000  8.6471165E-003  9.0903587E-003       3.4691131       3.4689492  4.7249672E-003
       8.1000000  6.6996704E-003  7.2781786E-003       3.6043112       3.6041314  4.9894338E-003
       8.4000000  4.7003534E-003  5.4350361E-003       3.7397114       3.7395151  5.2470176E-003
       8.7000000  2.6517404E-003  3.5653249E-003       3.8753214       3.8751084  5.4957152E-003
       9.0000000  5.5653355E-004  1.6736436E-003       4.0111491       4.0109192  5.7334264E-003
       9.3000000 -1.5824323E-003 -2.3519871E-004       4.1472024       4.1469554  5.9579518E-003
       9.6000000 -3.7621862E-003 -2.1561773E-003       4.2834892       4.2832250  6.1669898E-003
       9.9000000 -5.9796155E-003 -4.0840443E-003       4.4200173       4.4197363  6.3581340E-003
       10.200000 -8.2314611E-003 -6.0133244E-003       4.5567947       4.5564972  6.5288704E-003
       10.500000    -0.010514312 -7.9383063E-003       4.6938295       4.6935162  6.6765743E-003
       10.800000    -0.012824599 -9.8530367E-003       4.8311297       4.8308013  6.7985072E-003
       11.100000    -0.015158591    -0.011751312       4.9687033       4.9683609  6.8918138E-003
       11.400000    -0.017512383    -0.013626671       5.1065585       5.1062034  6.9535185E-003
       11.700000    -0.019881895    -0.015472386       5.2447034       5.2443373  6.9805226E-003
       12.000000    -0.022262862    -0.017281455       5.3831463       5.3827711  6.9696005E-003
       12.300000    -0.024650826    -0.019046591       5.5218953       5.5215134  6.9173967E-003
       12.600000    -0.027041128    -0.020760212       5.6609589       5.6605728  6.8204219E-003
       12.900000    -0.029428898    -0.022414432       5.8003453       5.7999581  6.6750500E-003
       13.200000    -0.031809048    -0.024001052       5.9400629       5.9396781  6.4775142E-003
       13.500000    -0.034176259    -0.025511542       6.0801202       6.0797418  6.2239039E-003
       13.800000    -0.036524971    -0.026937035       6.2205256       6.2201580  5.9101608E-003
       14.100000    -0.038849373    -0.028268312       6.3612877       6.3609358  5.5320759E-003
       14.400000    -0.041143387    -0.029495787       6.5024151       6.5020845  5.0852856E-003
       14.700000    -0.043400657    -0.030609494       6.6439164       6.6436131  4.5652690E-003
       15.000000    -0.045614534    -0.031599073       6.7858004       6.7855311  3.9673444E-003
       15.300000    -0.047778061    -0.032453751       6.9280756       6.9278479  3.2866660E-003
       15.600000    -0.049883956    -0.033162327       7.0707511       7.0705730  2.5182218E-003
       15.900000    -0.051924591    -0.033713152       7.2138356       7.2137161  1.6568306E-003
       16.200000    -0.053891979    -0.034094112       7.3573380       7.3572867  6.9713982E-004
       16.500000    -0.055777745    -0.034292607       7.5012674       7.5012948 -3.6637637E-004
       16.800000    -0.057573109    -0.034295527       7.6456327       7.6457504 -1.5394183E-003
       17.100000    -0.059268859    -0.034089231       7.7904430       7.7906634 -2.8278617E-003
       17.400000    -0.060855322    -0.033659522       7.9357076       7.9360439 -4.2377580E-003
       17.700000    -0.062322338    -0.032991622       8.0814357       8.0819024 -5.7753334E-003
       18.000000    -0.063659224    -0.032070141       8.2276364       8.2282492 -7.4469879E-003
       18.300000    -0.064854739    -0.030879049       8.3743193       8.3750947 -9.2592921E-003
       18.600000    -0.065897048    -0.029401643       8.5214936       8.5224497    -0.011218984
       18.900000    -0.066773673    -0.027620515       8.6691690       8.6703250    -0.013332963
       19.200000    -0.067471449    -0.025517512       8.8173549       8.8187314    -0.015608283
       19.500000    -0.067976471    -0.023073697       8.9660611       8.9676800    -0.018052145
       19.800000    -0.068274029    -0.020269307       9.1152972       9.1171819    -0.020671881
       20.100000    -0.068348548    -0.017083708       9.2650731       9.2672486    -0.023474946
       20.400000    -0.068183510    -0.013495342       9.4153987       9.4178915    -0.026468896
       20.700000    -0.067761368 -9.4816729E-003       9.5662838       9.5691222    -0.029661369
       21.000000    -0.067063453 -5.0191310E-003       9.7177387       9.7209525    -0.033060056
       21.300000    -0.066069866 -8.3044352E-005       9.8697735       9.8733944    -0.036672674
       21.600000    -0.064759347  5.3524299E-003       10.022398       10.026460    -0.040506927
       21.900000    -0.063109141     0.011314384       10.175624       10.180161    -0.044570462
       22.200000    -0.061094828     0.017831243       10.329461       10.334511    -0.048870813
       22.500000    -0.058690130     0.024932864       10.483919       10.489522    -0.053415342
       22.800000    -0.055866693     0.032650638       10.639010       10.645207    -0.058211160
       23.100000    -0.052593821     0.041017606       10.794745       10.801579    -0.063265040
       23.400000    -0.048838167     0.050068599       10.951135       10.958650    -0.068583305
       23.700000    -0.044563364     0.059840379       11.108190       11.116436    -0.074171707
       24.000000    -0.039729586     0.070371813       11.265924       11.274948    -0.080035265
       24.300000    -0.034293019     0.081704070       11.424347       11.434201    -0.086178087
       24.600000    -0.028205212     0.093880842       11.583472       11.594208    -0.092603146
       24.900000    -0.021412289      0.10694860       11.743311       11.754985    -0.099312016
       25.200000    -0.013853977      0.12095693       11.903877       11.916545     -0.10630455
       25.500000 -5.4623887E-003      0.13595883       12.065184       12.078903     -0.11357846
       25.800000  3.8395030E-003      0.15201123       12.227246       12.242074     -0.12112890
       26.100000     0.014139809      0.16917543       12.390076       12.406074     -0.12894781
       26.400000     0.025540221      0.18751781       12.553691       12.570916     -0.13702319
       26.700000     0.038159263      0.20711058       12.718107       12.736618     -0.14533824
       27.000000     0.052136586      0.22803280       12.883341       12.903195     -0.15387014
       27.300000     0.067638717      0.25037164       13.049412       13.070664     -0.16258867
       27.600000     0.084866885      0.27422405       13.216341       13.239040     -0.17145425
       27.900000      0.10406789      0.29969895       13.384149       13.408340     -0.18041563
       28.200000      0.12554948      0.32692021       13.552863       13.578581     -0.18940663
       28.500000      0.14970264      0.35603080       13.722510       13.749781     -0.19834200
       28.800000      0.17703475      0.38719865       13.893124       13.921958     -0.20711170
       29.100000      0.20822046      0.42062543       14.064743       14.095128     -0.21557325
       29.400000      0.24418239      0.45655994       14.237413       14.269311     -0.22354106
       29.700000      0.28622432      0.49531974       14.411190       14.444524     -0.23077172
       30.000000      0.33626063      0.53732814       14.586145       14.620788     -0.23694409

Table series: Data for wavelength : 0.656273 µm.
   Y Angle (deg)       Tan Shift       Sag Shift     Real Height     Ref. Height      Distortion
  --------------  --------------  --------------  --------------  --------------  --------------
      0.00000000     0.058232623     0.058232623      0.00000000      0.00000000      0.00000000
      0.30000000     0.058189648     0.058188655      0.13260414      0.13260407  5.0072201E-005
      0.60000000     0.058062277     0.058056820      0.26521561      0.26521541  7.4289372E-005
      0.90000000     0.057850630     0.057837328      0.39784175      0.39784130  1.1452413E-004
       1.2000000     0.057554905     0.057530525      0.53048991      0.53048900  1.7067006E-004
       1.5000000     0.057175380     0.057136900      0.66316742      0.66316581  2.4248593E-004
       1.8000000     0.056712414     0.056657080      0.79588163      0.79587900  3.2969223E-004
       2.1000000     0.056166444     0.056091834      0.92863989      0.92863588  4.3194656E-004
       2.4000000     0.055537991     0.055442073       1.0614496       1.0614437  5.4884313E-004
       2.7000000     0.054827655     0.054708848       1.1943180       1.1943099  6.7991226E-004
       3.0000000     0.054036120     0.053893357       1.3272527       1.3272417  8.2461970E-004
       3.3000000     0.053164152     0.052996940       1.4602608       1.4602465  9.8236588E-004
       3.6000000     0.052212603     0.052021085       1.5933500       1.5933316  1.1524851E-003
       3.9000000     0.051182409     0.050967427       1.7265275       1.7265044  1.3342448E-003
       4.2000000     0.050074594     0.049837751       1.8598007       1.8597723  1.5268442E-003
       4.5000000     0.048890270     0.048633993       1.9931773       1.9931428  1.7294136E-003
       4.8000000     0.047630637     0.047358244       2.1266645       2.1266232  1.9410129E-003
       5.1000000     0.046296988     0.046012747       2.2602699       2.2602211  2.1606305E-003
       5.4000000     0.044890709     0.044599906       2.3940010       2.3939438  2.3871820E-003
       5.7000000     0.043413279     0.043122285       2.5278653       2.5277990  2.6195085E-003
       6.0000000     0.041866276     0.041582611       2.6618703       2.6617942  2.8563755E-003
       6.3000000     0.040251377     0.039983778       2.7960236       2.7959370  3.0964707E-003
       6.6000000     0.038570360     0.038328848       2.9303328       2.9302349  3.3384027E-003
       6.9000000     0.036825106     0.036621057       3.0648054       3.0646957  3.5806990E-003
       7.2000000     0.035017606     0.034863818       3.1994492       3.1993269  3.8218042E-003
       7.5000000     0.033149957     0.033060721       3.3342718       3.3341364  4.0600778E-003
       7.8000000     0.031224371     0.031215545       3.4692809       3.4691319  4.2937922E-003
       8.1000000     0.029243175     0.029332254       3.6044841       3.6043212  4.5211307E-003
       8.4000000     0.027208816     0.027415006       3.7398893       3.7397121  4.7401846E-003
       8.7000000     0.025123865     0.025468156       3.8755043       3.8753125  4.9489516E-003
       9.0000000     0.022991019     0.023496264       4.0113368       4.0111304  5.1453326E-003
       9.3000000     0.020813106     0.021504096       4.1473947       4.1471737  5.3271296E-003
       9.6000000     0.018593092     0.019496633       4.2836858       4.2834506  5.4920426E-003
       9.9000000     0.016334081     0.017479077       4.4202182       4.4199690  5.6376674E-003
       10.200000     0.014039324     0.015456853       4.5569997       4.5567372  5.7614920E-003
       10.500000     0.011712223     0.013435621       4.6940384       4.6937633  5.8608944E-003
       10.800000  9.3563362E-003     0.011421281       4.8313423       4.8310556  5.9331390E-003
       11.100000  6.9753842E-003  9.4199794E-003       4.9689194       4.9686225  5.9753736E-003
       11.400000  4.5732571E-003  7.4381176E-003       5.1067779       5.1064723  5.9846267E-003
       11.700000  2.1540208E-003  5.4823605E-003       5.2449259       5.2446135  5.9578034E-003
       12.000000 -2.7807571E-004  3.5596448E-003       5.3833717       5.3830545  5.8916827E-003
       12.300000 -2.7185925E-003  1.6771882E-003       5.5221234       5.5218041  5.7829142E-003
       12.600000 -5.1628906E-003 -1.5750071E-004       5.6611895       5.6608709  5.6280139E-003
       12.900000 -7.6061232E-003 -1.9366127E-003       5.8005781       5.8002635  5.4233618E-003
       13.200000    -0.010043226 -3.6520268E-003       5.9402977       5.9399909  5.1651976E-003
       13.500000    -0.012468909 -5.2952992E-003       6.0803568       6.0800619  4.8496175E-003
       13.800000    -0.014877641 -6.8576508E-003       6.2207637       6.2204855  4.4725709E-003
       14.100000    -0.017263645 -8.3299554E-003       6.3615271       6.3612708  4.0298566E-003
       14.400000    -0.019620881 -9.7027253E-003       6.5026555       6.5024268  3.5171200E-003
       14.700000    -0.021943034    -0.010966098       6.6441576       6.6439630  2.9298489E-003
       15.000000    -0.024223501    -0.012109821       6.7860420       6.7858885  2.2633713E-003
       15.300000    -0.026455375    -0.013123236       6.9283176       6.9282128  1.5128517E-003
       15.600000    -0.028631430    -0.013995261       7.0709930       7.0709454  6.7328855E-004
       15.900000    -0.030744101    -0.014714374       7.2140771       7.2140959 -2.6048847E-004
       16.200000    -0.032785466    -0.015268595       7.3575789       7.3576741 -1.2938206E-003
       16.500000    -0.034747230    -0.015645464       7.5015074       7.5016898 -2.4322221E-003
       16.800000    -0.036620694    -0.015832019       7.6458715       7.6461530 -3.6813815E-003
       17.100000    -0.038396739    -0.015814776       7.7906804       7.7910736 -5.0471629E-003
       17.400000    -0.040065795    -0.015579705       7.9359431       7.9364618 -6.5356059E-003
       17.700000    -0.041617817    -0.015112200       8.0816690       8.0823280 -8.1529256E-003
       18.000000    -0.043042248    -0.014397057       8.2278674       8.2286824 -9.9055109E-003
       18.300000    -0.044327990    -0.013418444       8.3745474       8.3755357    -0.011799923
       18.600000    -0.045463361    -0.012159864       8.5217187       8.5228985    -0.013842890
       18.900000    -0.046436060    -0.010604131       8.6693906       8.6707815    -0.016041305
       19.200000    -0.047233117 -8.7333240E-003       8.8175728       8.8191958    -0.018402217
       19.500000    -0.047840842 -6.5287570E-003       8.9662749       8.9681522    -0.020932822
       19.800000    -0.048244771 -3.9709324E-003       9.1155066       9.1176620    -0.023640456
       20.100000    -0.048429601 -1.0394978E-003       9.2652776       9.2677366    -0.026532578
       20.400000    -0.048379119  2.2868028E-003       9.4155980       9.4183874    -0.029616753
       20.700000    -0.048076125  6.0301812E-003       9.5664776       9.5696261    -0.032900635
       21.000000    -0.047502337     0.010213863       9.7179265       9.7214644    -0.036391940
       21.300000    -0.046638294     0.014862147       9.8699550       9.8739143    -0.040098419
       21.600000    -0.045463236     0.020000479       10.022573       10.026988    -0.044027820
       21.900000    -0.043954973     0.025655518       10.175792       10.180697    -0.048187848
       22.200000    -0.042089730     0.031855229       10.329621       10.335056    -0.052586114
       22.500000    -0.039841966     0.038628961       10.484071       10.490075    -0.057230073
       22.800000    -0.037184174     0.046007560       10.639154       10.645768    -0.062126958
       23.100000    -0.034086633     0.054023472       10.794879       10.802148    -0.067283688
       23.400000    -0.030517123     0.062710874       10.951259       10.959227    -0.072706773
       23.700000    -0.026440588     0.072105814       11.108305       11.117021    -0.078402187
       24.000000    -0.021818732     0.082246372       11.266028       11.275541    -0.084375231
       24.300000    -0.016609536     0.093172842       11.424439       11.434803    -0.090630351
       24.600000    -0.010766664      0.10492794       11.583552       11.594819    -0.097170937
       24.900000 -4.2387556E-003      0.11755707       11.743378       11.755604     -0.10399907
       25.200000  3.0314620E-003      0.13110855       11.903931       11.917172     -0.11111522
       25.500000     0.011108263      0.14563404       12.065223       12.079539     -0.11851788
       25.800000     0.020064297      0.16118884       12.227268       12.242719     -0.12620311
       26.100000     0.029982319      0.17783244       12.390082       12.406727     -0.13416400
       26.400000     0.040957413      0.19562908       12.553678       12.571578     -0.14238996
       26.700000     0.053099864      0.21464848       12.718073       12.737289     -0.15086593
       27.000000     0.066538935      0.23496669       12.883284       12.903875     -0.15957125
       27.300000     0.081427884      0.25666730       13.049330       13.071352     -0.16847837
       27.600000     0.097950765      0.27984285       13.216229       13.239737     -0.17755111
       27.900000      0.11633178      0.30459678       13.384005       13.409046     -0.18674245
       28.200000      0.13684840      0.33104599       13.552682       13.579296     -0.19599162
       28.500000      0.15985025      0.35932442       13.722287       13.750505     -0.20522030
       28.800000      0.18578687      0.38958800       13.892851       13.922691     -0.21432740
       29.100000      0.21524980      0.42202190       14.064411       14.095870     -0.22318204
       29.400000      0.24903857      0.45685149       14.237011       14.270062     -0.23161379
       29.700000      0.28826811      0.49435956       14.410703       14.445285     -0.23939890
       30.000000      0.33455144      0.53491486       14.585553       14.621558     -0.24624093
