Results for:	
File:	C:\Users\User\OneDrive - Massachusetts Institute of Technology\Documents\MIT\Grad School\Classes\2.156\Lens Project\Prime Lenses\US005579169_Example01P.zmx
Title:	US 5,579,169 Example 1 (Nikon R-UW AF Fisheye-Nikkor 13mm f/2.8)
Date:	11/7/2025 5:39:15 PM

0 message(s) in output.
3 series table(s) in output.

Table series: Data for wavelength : 0.486133 µm.
   Y Angle (deg)       Tan Shift       Sag Shift     Real Height     Ref. Height      Distortion
  --------------  --------------  --------------  --------------  --------------  --------------
      0.00000000    -0.059533623    -0.059533623      0.00000000      0.00000000      0.00000000
      0.83969994    -0.059587577    -0.059580982      0.24220726      0.24222567 -7.6002269E-003
       1.6793999    -0.059744909    -0.059722964      0.48440811      0.48455543    -0.030401860
       2.5190998    -0.060005227    -0.059959286      0.72659615      0.72709355    -0.068409038
       3.3587998    -0.060367878    -0.060289475      0.96876492      0.96994465     -0.12162845
       4.1984997    -0.060831947    -0.060712868       1.2109080       1.2132139     -0.19006945
       5.0381996    -0.061396257    -0.061228615       1.4530187       1.4570072     -0.27374408
       5.8778996    -0.062059374    -0.061835679       1.6950907       1.7014313     -0.37266705
       6.7175995    -0.062819605    -0.062532832       1.9371171       1.9465942     -0.48685577
       7.5572994    -0.063674996    -0.063318661       2.1790913       2.1926050     -0.61633030
       8.3969994    -0.064623341    -0.064191568       2.4210065       2.4395744     -0.76111341
       9.2366993    -0.065662175    -0.065149767       2.6628556       2.6876148     -0.92123055
       10.076399    -0.066788784    -0.066191288       2.9046317       2.9368403      -1.0967099
       10.916099    -0.068000198    -0.067313978       3.1463276       3.1873675      -1.2875822
       11.755799    -0.069293201    -0.068515502       3.3879358       3.4393151      -1.4938810
       12.595499    -0.070664329    -0.069793343       3.6294489       3.6928042      -1.7156426
       13.435199    -0.072109872    -0.071144804       3.8708592       3.9479592      -1.9529058
       14.274899    -0.073625880    -0.072567010       4.1121589       4.2049071      -2.2057123
       15.114599    -0.075208163    -0.074056909       4.3533399       4.4637785      -2.4741066
       15.954299    -0.076852295    -0.075611275       4.5943938       4.7247077      -2.7581355
       16.793999    -0.078553619    -0.077226709       4.8353123       4.9878327      -3.0578488
       17.633699    -0.080307249    -0.078899640       5.0760864       5.2532958      -3.3732992
       18.473399    -0.082108073    -0.080626329       5.3167072       5.5212440      -3.7045417
       19.313099    -0.083950761    -0.082402871       5.5571654       5.7918291      -4.0516343
       20.152799    -0.085829766    -0.084225197       5.7974513       6.0652082      -4.4146377
       20.992498    -0.087739330    -0.086089078       6.0375550       6.3415442      -4.7936152
       21.832198    -0.089673491    -0.087990128       6.2774663       6.6210060      -5.1886329
       22.671898    -0.091626086    -0.089923805       6.5171745       6.9037690      -5.5997598
       23.511598    -0.093590760    -0.091885416       6.7566687       7.1900158      -6.0270673
       24.351298    -0.095560967    -0.093870124       6.9959374       7.4799364      -6.4706297
       25.190998    -0.097529983    -0.095872946       7.2349690       7.7737292      -6.9305240
       26.030698    -0.099490912    -0.097888762       7.4737511       8.0716008      -7.4068300
       26.870398     -0.10143669    -0.099912316       7.7122711       8.3737677      -7.8996300
       27.710098     -0.10336009     -0.10193823       7.9505157       8.6804561      -8.4090093
       28.549798     -0.10525375     -0.10396099       8.1884714       8.9919030      -8.9350555
       29.389498     -0.10711016     -0.10597497       8.4261240       9.3083570      -9.4778593
       30.229198     -0.10892168     -0.10797444       8.6634586       9.6300791      -10.037514
       31.068898     -0.11068054     -0.10995357       8.9004599       9.9573438      -10.614115
       31.908598     -0.11237889     -0.11190640       9.1371120       10.290440      -11.207761
       32.748298     -0.11400874     -0.11382691       9.3733982       10.629672      -11.818553
       33.587998     -0.11556207     -0.11570900       9.6093014       10.975360      -12.446595
       34.427697     -0.11703073     -0.11754649       9.8448034       11.327844      -13.091992
       35.267397     -0.11840655     -0.11933311       10.079886       11.687482      -13.754855
       36.107097     -0.11968131     -0.12106259       10.314528       12.054653      -14.435293
       36.946797     -0.12084675     -0.12272858       10.548712       12.429759      -15.133420
       37.786497     -0.12189461     -0.12432471       10.782414       12.813228      -15.849353
       38.626197     -0.12281663     -0.12584460       11.015614       13.205511      -16.583211
       39.465897     -0.12360457     -0.12728185       11.248287       13.607092      -17.335113
       40.305597     -0.12425024     -0.12863009       11.480411       14.018483      -18.105182
       41.145297     -0.12474551     -0.12988297       11.711960       14.440232      -18.893544
       41.984997     -0.12508235     -0.13103418       11.942908       14.872923      -19.700326
       42.824697     -0.12525282     -0.13207748       12.173228       15.317180      -20.525657
       43.664397     -0.12524913     -0.13300672       12.402892       15.773674      -21.369668
       44.504097     -0.12506364     -0.13381583       12.631869       16.243120      -22.232491
       45.343797     -0.12468892     -0.13449889       12.860130       16.726288      -23.114261
       46.183497     -0.12411774     -0.13505014       13.087642       17.224007      -24.015115
       47.023197     -0.12334315     -0.13546397       13.314370       17.737166      -24.935189
       47.862897     -0.12235848     -0.13573499       13.540281       18.266728      -25.874622
       48.702596     -0.12115740     -0.13585807       13.765337       18.813729      -26.833554
       49.542296     -0.11973395     -0.13582833       13.989501       19.379294      -27.812125
       50.381996     -0.11808262     -0.13564120       14.212731       19.964638      -28.810476
       51.221696     -0.11619834     -0.13529248       14.434987       20.571084      -29.828749
       52.061396     -0.11407661     -0.13477835       14.656225       21.200068      -30.867086
       52.901096     -0.11171351     -0.13409542       14.876398       21.853156      -31.925628
       53.740796     -0.10910582     -0.13324079       15.095461       22.532058      -33.004517
       54.580496     -0.10625103     -0.13221211       15.313363       23.238646      -34.103894
       55.420196     -0.10314750     -0.13100761       15.530051       23.974970      -35.223898
       56.259896    -0.099794552     -0.12962621       15.745472       24.743287      -36.364668
       57.099596    -0.096192532     -0.12806752       15.959570       25.546078      -37.526341
       57.939296    -0.092342993     -0.12633198       16.172284       26.386088      -38.709050
       58.778996    -0.088248823     -0.12442089       16.383553       27.266352      -39.912928
       59.618696    -0.083914414     -0.12233653       16.593311       28.190242      -41.138103
       60.458396    -0.079345854     -0.12008220       16.801493       29.161512      -42.384700
       61.298096    -0.074551146     -0.11766239       17.008026       30.184353      -43.652840
       62.137795    -0.069540459     -0.11508284       17.212836       31.263460      -44.942639
       62.977495    -0.064326418     -0.11235064       17.415847       32.404111      -46.254205
       63.817195    -0.058924424     -0.10947440       17.616978       33.612261      -47.587644
       64.656895    -0.053353038     -0.10646437       17.816144       34.894650      -48.943051
       65.496595    -0.047634410     -0.10333255       18.013256       36.258943      -50.320515
       66.336295    -0.041794767     -0.10009289       18.208223       37.713892      -51.720116
       67.175995    -0.035864975    -0.096761422       18.400948       39.269533      -53.141922
       68.015695    -0.029881181    -0.093356488       18.591330       40.937436      -54.585993
       68.855395    -0.023885534    -0.089898876       18.779263       42.731008      -56.052374
       69.695095    -0.017927009    -0.086412073       18.964638       44.665871      -57.541099
       70.534795    -0.012062334    -0.082922470       19.147338       46.760342      -59.052185
       71.374495 -6.3570319E-003    -0.079459610       19.327243       49.036039      -60.585635
       72.214195 -8.8657956E-004    -0.076056448       19.504228       51.518662      -62.141432
       73.053895  4.2622814E-003    -0.072749633       19.678159       54.239001      -63.719541
       73.893595  8.9901408E-003    -0.069579790       19.848899       57.234269      -65.319905
       74.733295     0.013183333    -0.066591855       20.016303       60.549861      -66.942445
       75.572994     0.016712244    -0.063835407       20.180221       64.241740      -68.587056
       76.412694     0.019429489    -0.061365022       20.340495       68.379701      -70.253606
       77.252394     0.021167980    -0.059240661       20.496959       73.051928      -71.941933
       78.092094     0.021738912    -0.057528064       20.649440       78.371476      -73.651843
       78.931794     0.020929720    -0.056299177       20.797756       84.485705      -75.383106
       79.771494     0.018502042    -0.055632583       20.941719       91.590362      -77.135455
       80.611194     0.014189794    -0.055613957       21.081129       99.951220      -78.908582
       81.450894  7.6974343E-003    -0.056336529       21.215778       109.93847      -80.702134
       82.290594 -1.3014280E-003    -0.057901555       21.345446       122.08357      -82.515709
       83.130294    -0.013164928    -0.060418773       21.469906       137.17783      -84.348852
       83.969994    -0.028283135    -0.064006862       21.588917       156.45335      -86.201052

Table series: Data for wavelength : 0.587562 µm.
   Y Angle (deg)       Tan Shift       Sag Shift     Real Height     Ref. Height      Distortion
  --------------  --------------  --------------  --------------  --------------  --------------
      0.00000000 -6.7383016E-004 -6.7383016E-004      0.00000000      0.00000000      0.00000000
      0.83969994 -7.3285276E-004 -7.2194432E-004      0.24224687      0.24226529 -7.6051418E-003
       1.6793999 -9.0168724E-004 -8.6619102E-004      0.48448725      0.48463469    -0.030421896
       2.5190998 -1.1799486E-003 -1.1062830E-003      0.72671467      0.72721248    -0.068454243
       3.3587998 -1.5669955E-003 -1.4417414E-003      0.96892261      0.97010331     -0.12170882
       4.1984997 -2.0619302E-003 -1.8718966E-003       1.2111045       1.2134124     -0.19019492
       5.0381996 -2.6635995E-003 -2.3958876E-003       1.4532538       1.4572455     -0.27392449
       5.8778996 -3.3705955E-003 -3.0126634E-003       1.6953638       1.7017097     -0.37291214
       6.7175995 -4.1812558E-003 -3.7209828E-003       1.9374278       1.9469126     -0.48717514
       7.5572994 -5.0936654E-003 -4.5194156E-003       2.1794389       2.1929637     -0.61673342
       8.3969994 -6.1056570E-003 -5.4063426E-003       2.4213904       2.4399735     -0.76160957
       9.2366993 -7.2148132E-003 -6.3799572E-003       2.6632751       2.6880544     -0.92182885
       10.076399 -8.4184671E-003 -7.4382656E-003       2.9050860       2.9373207      -1.0974192
       10.916099 -9.7137049E-003 -8.5790883E-003       3.1468158       3.1878889      -1.2884112
       11.755799    -0.011097367 -9.8000612E-003       3.3884570       3.4398776      -1.4948382
       12.595499    -0.012566051    -0.011098636       3.6300022       3.6934083      -1.7167361
       13.435199    -0.014116112    -0.012472084       3.8714435       3.9486050      -1.9541436
       14.274899    -0.015743668    -0.013917495       4.1127731       4.2055949      -2.2071020
       15.114599    -0.017444601    -0.015431779       4.3539828       4.4645087      -2.4756553
       15.954299    -0.019214558    -0.017011669       4.5950643       4.7254805      -2.7598502
       16.793999    -0.021048958    -0.018653725       4.8360091       4.9886485      -3.0597362
       17.633699    -0.022942991    -0.020354331       5.0768082       5.2541551      -3.3753653
       18.473399    -0.024891627    -0.022109703       5.3174526       5.5221471      -3.7067924
       19.313099    -0.026889613    -0.023915887       5.5579330       5.7927765      -4.0540750
       20.152799    -0.028931484    -0.025768763       5.7982397       6.0662004      -4.4172733
       20.992498    -0.031011560    -0.027664047       6.0383628       6.3425815      -4.7964502
       21.832198    -0.033123959    -0.029597298       6.2782919       6.6220890      -5.1916715
       22.671898    -0.035262594    -0.031563917       6.5180165       6.9048983      -5.6030053
       23.511598    -0.037421183    -0.033559152       6.7575254       7.1911919      -6.0305229
       24.351298    -0.039593252    -0.035578100       6.9968074       7.4811600      -6.4742979
       25.190998    -0.041772143    -0.037615716       7.2358506       7.7750008      -6.9344068
       26.030698    -0.043951019    -0.039666810       7.4746427       8.0729212      -7.4109288
       26.870398    -0.046122868    -0.041726058       7.7131712       8.3751375      -7.9039457
       27.710098    -0.048280514    -0.043788005       7.9514227       8.6818760      -8.4135422
       28.549798    -0.050416622    -0.045847069       8.1893837       8.9933738      -8.9398053
       29.389498    -0.052523706    -0.047897547       8.4270400       9.3098796      -9.4828251
       30.229198    -0.054594135    -0.049933622       8.6643768       9.6316544      -10.042694
       31.068898    -0.056620145    -0.051949371       8.9013788       9.9589726      -10.619507
       31.908598    -0.058593844    -0.053938769       9.1380301       10.292123      -11.213363
       32.748298    -0.060507225    -0.055895697       9.3743141       10.631410      -11.824361
       33.587998    -0.062352171    -0.057813952       9.6102136       10.977155      -12.452604
       34.427697    -0.064120469    -0.059687256       9.8457106       11.329697      -13.098199
       35.267397    -0.065803821    -0.061509262       10.080787       11.689393      -13.761252
       36.107097    -0.067393851    -0.063273568       10.315422       12.056625      -14.441875
       36.946797    -0.068882120    -0.064973725       10.549597       12.431793      -15.140181
       37.786497    -0.070260138    -0.066603248       10.783290       12.815324      -15.856284
       38.626197    -0.071519377    -0.068155634       11.016479       13.207672      -16.590304
       39.465897    -0.072651284    -0.069624368       11.249141       13.609318      -17.342358
       40.305597    -0.073647295    -0.071002942       11.481253       14.020776      -18.112571
       41.145297    -0.074498852    -0.072284869       11.712790       14.442594      -18.901065
       41.984997    -0.075197417    -0.073463700       11.943725       14.875355      -19.707968
       42.824697    -0.075734490    -0.074533043       12.174032       15.319686      -20.533408
       43.664397    -0.076101630    -0.075486579       12.403683       15.776254      -21.377515
       44.504097    -0.076290468    -0.076318088       12.632647       16.245777      -22.240422
       45.343797    -0.076292734    -0.077021466       12.860895       16.729024      -23.122261
       46.183497    -0.076100275    -0.077590752       13.088395       17.226824      -24.023169
       47.023197    -0.075705082    -0.078020154       13.315113       17.740068      -24.943281
       47.862897    -0.075099316    -0.078304077       13.541013       18.269716      -25.882736
       48.702596    -0.074275335    -0.078437152       13.766061       18.816807      -26.841674
       49.542296    -0.073225727    -0.078414271       13.990217       19.382464      -27.820233
       50.381996    -0.071943344    -0.078230619       14.213443       19.967904      -28.818554
       51.221696    -0.070421342    -0.077881714       14.435696       20.574449      -29.836779
       52.061396    -0.068653223    -0.077363448       14.656934       21.203535      -30.875048
       52.901096    -0.066632885    -0.076672132       14.877111       21.856730      -31.933503
       53.740796    -0.064354675    -0.075804540       15.096180       22.535744      -33.012285
       54.580496    -0.061813456    -0.074757965       15.314092       23.242447      -34.111534
       55.420196    -0.059004673    -0.073530273       15.530795       23.978892      -35.231390
       56.259896    -0.055924440    -0.072119961       15.746236       24.747334      -36.371991
       57.099596    -0.052569629    -0.070526230       15.960358       25.550257      -37.533473
       57.939296    -0.048937987    -0.068749041       16.173103       26.390404      -38.715970
       58.778996    -0.045028252    -0.066789206       16.384409       27.270812      -39.919613
       59.618696    -0.040840308    -0.064648459       16.594213       28.194854      -41.144533
       60.458396    -0.036375348    -0.062329552       16.802447       29.166282      -42.390853
       61.298096    -0.031636076    -0.059836347       17.009041       30.189290      -43.658694
       62.137795    -0.026626932    -0.057173920       17.213922       31.268574      -44.948172
       62.977495    -0.021354359    -0.054348675       17.417013       32.409412      -46.259397
       63.817195    -0.015827114    -0.051368460       17.618236       33.617759      -47.592474
       64.656895    -0.010056623    -0.048242701       17.817505       34.900358      -48.947499
       65.496595 -4.0573998E-003    -0.044982556       18.014735       36.264874      -50.324563
       66.336295  2.1524765E-003    -0.041601041       18.209833       37.720061      -51.723744
       67.175995  8.5508055E-003    -0.038113216       18.402705       39.275956      -53.145113
       68.015695     0.015110628    -0.034536354       18.593250       40.944132      -54.588731
       68.855395     0.021799495    -0.030890135       18.781365       42.737998      -56.054645
       69.695095     0.028578626    -0.027196859       18.966941       44.673177      -57.542889
       70.534795     0.035401963    -0.023481661       19.149863       46.767991      -59.053483
       71.374495     0.042215083    -0.019772751       19.330014       49.044060      -60.586432
       72.214195     0.048953975    -0.016101692       19.507269       51.527089      -62.141722
       73.053895     0.055543682    -0.012503649       19.681498       54.247873      -63.719320
       73.893595     0.061896773 -9.0177054E-003       19.852565       57.243631      -65.319173
       74.733295     0.067911649 -5.6871856E-003       20.020329       60.559765      -66.941205
       75.572994     0.073470705 -2.5599907E-003       20.184641       64.252248      -68.585316
       76.412694     0.078438315  3.1103788E-004       20.345346       68.390886      -70.251378
       77.252394     0.082658690  2.8677247E-003       20.502283       73.063878      -71.939235
       78.092094     0.085953599  5.0461541E-003       20.655281       78.384296      -73.648700
       78.931794     0.088120015  6.7762340E-003       20.804164       84.499524      -75.379549
       79.771494     0.088927718  7.9812436E-003       20.948745       91.605344      -77.131525
       80.611194     0.088116948  8.5773558E-003       21.088831       99.967569      -78.904328
       81.450894     0.085396192  8.4731496E-003       21.224218       109.95645      -80.697615
       82.290594     0.080440232  7.5691514E-003       21.354692       122.10354      -82.510996
       83.130294     0.072888629  5.7572566E-003       21.480031       137.20027      -84.344032
       83.969994     0.062344832  2.9202952E-003       21.600000       156.47894      -86.196225

Table series: Data for wavelength : 0.656273 µm.
   Y Angle (deg)       Tan Shift       Sag Shift     Real Height     Ref. Height      Distortion
  --------------  --------------  --------------  --------------  --------------  --------------
      0.00000000     0.060060028     0.060060028      0.00000000      0.00000000      0.00000000
      0.83969994     0.059999563     0.060011813      0.24238210      0.24240054 -7.6065454E-003
       1.6793999     0.059827943     0.059867264      0.48475769      0.48490524    -0.030427332
       2.5190998     0.059545551     0.059626671      0.72712027      0.72761845    -0.068466389
       3.3587998     0.059153028     0.059290516      0.96946330      0.97064487     -0.12173034
       4.1984997     0.058651268     0.058859474       1.2117802       1.2140897     -0.19022844
       5.0381996     0.058041423     0.058334414       1.4540644       1.4580590     -0.27397263
       5.8778996     0.057324896     0.057716395       1.6963091       1.7026596     -0.37297746
       6.7175995     0.056503346     0.057006667       1.9385077       1.9479995     -0.48726017
       7.5572994     0.055578684     0.056206673       2.1806533       2.1941879     -0.61684063
       8.3969994     0.054553071     0.055318044       2.4227389       2.4413356     -0.76174138
       9.2366993     0.053428919     0.054342602       2.6647576       2.6895550     -0.92198762
       10.076399     0.052208889     0.053282356       2.9067023       2.9389605      -1.0976072
       10.916099     0.050895890     0.052139504       3.1485655       3.1896686      -1.2886307
       11.755799     0.049493074     0.050916428       3.3903399       3.4417980      -1.4950913
       12.595499     0.048003837     0.049615698       3.6320180       3.6954701      -1.7170248
       13.435199     0.046431817     0.048240064       3.8735919       3.9508093      -1.9544698
       14.274899     0.044780891     0.046792460       4.1150537       4.2079427      -2.2074675
       15.114599     0.043055171     0.045276001       4.3563953       4.4670010      -2.4760619
       15.954299     0.041259003     0.043693980       4.5976083       4.7281185      -2.7602996
       16.793999     0.039396964     0.042049866       4.8386841       4.9914335      -3.0602297
       17.633699     0.037473858     0.040347303       5.0796140       5.2570882      -3.3759044
       18.473399     0.035494713     0.038590108       5.3203887       5.5252299      -3.7073783
       19.313099     0.033464779     0.036782266       5.5609990       5.7960103      -4.0547088
       20.152799     0.031389522     0.034927932       5.8014352       6.0695868      -4.4179559
       20.992498     0.029274620     0.033031425       6.0416872       6.3461223      -4.7971824
       21.832198     0.027125959     0.031097223       6.2817449       6.6257858      -5.1924539
       22.671898     0.024949631     0.029129964       6.5215976       6.9087529      -5.6038384
       23.511598     0.022751927     0.027134440       6.7612342       7.1952064      -6.0314069
       24.351298     0.020539329     0.025115596       7.0006434       7.4853363      -6.4752330
       25.190998     0.018318512     0.023078520       7.2398133       7.7793412      -6.9353930
       26.030698     0.016096330     0.021028446       7.4787317       8.0774279      -7.4119658
       26.870398     0.013879818     0.018970745       7.7173859       8.3798129      -7.9050332
       27.710098     0.011676180     0.016910920       7.9557628       8.6867227      -8.4146794
       28.549798  9.4927852E-003     0.014854604       8.1938487       8.9983944      -8.9409915
       29.389498  7.3371595E-003     0.012807549       8.4316294       9.3150768      -9.4840592
       30.229198  5.2169805E-003     0.010775625       8.6690902       9.6370312      -10.043975
       31.068898  3.1400686E-003  8.7648116E-003       8.9062158       9.9645322      -10.620833
       31.908598  1.1143794E-003  6.7811901E-003       9.1429903       10.297869      -11.214732
       32.748298 -8.5200458E-004  4.8309368E-003       9.3793971       10.637345      -11.825772
       33.587998 -2.7508821E-003  2.9203150E-003       9.6154191       10.983283      -12.454055
       34.427697 -4.5739424E-003  1.0556659E-003       9.8510383       11.336022      -13.099687
       35.267397 -6.3127744E-003 -7.5659993E-004       10.086236       11.695919      -13.762775
       36.107097 -7.9588767E-003 -2.5100133E-003       10.320993       12.063355      -14.443431
       36.946797 -9.5036674E-003 -4.1980567E-003       10.555289       12.438733      -15.141766
       37.786497    -0.010938495 -5.8141757E-003       10.789103       12.822478      -15.857895
       38.626197    -0.012254649 -7.3517916E-003       11.022413       13.215045      -16.591937
       39.465897    -0.013443372 -8.8043145E-003       11.255196       13.616915      -17.344011
       40.305597    -0.014495874    -0.010165158       11.487429       14.028603      -18.114238
       41.145297    -0.015403339    -0.011427752       11.719086       14.450656      -18.902744
       41.984997    -0.016156945    -0.012585566       11.950142       14.883660      -19.709654
       42.824697    -0.016747876    -0.013632117       12.180570       15.328238      -20.535096
       43.664397    -0.017167337    -0.014560996       12.410341       15.785061      -21.379201
       44.504097    -0.017406569    -0.015365888       12.639427       16.254846      -22.242100
       45.343797    -0.017456868    -0.016040590       12.867796       16.738363      -23.123927
       46.183497    -0.017309601    -0.016579038       13.095418       17.236441      -24.024817
       47.023197    -0.016956231    -0.016975334       13.322257       17.749971      -24.944906
       47.862897    -0.016388331    -0.017223769       13.548281       18.279915      -25.884333
       48.702596    -0.015597617    -0.017318857       13.773452       18.827311      -26.843235
       49.542296    -0.014575966    -0.017255366       13.997732       19.393284      -27.821754
       50.381996    -0.013315451    -0.017028355       14.221083       19.979051      -28.820029
       51.221696    -0.011808370    -0.016633204       14.443462       20.585934      -29.838201
       52.061396    -0.010047288    -0.016065665       14.664827       21.215372      -30.876411
       52.901096 -8.0250729E-003    -0.015321898       14.885132       21.868932      -31.934801
       53.740796 -5.7349475E-003    -0.014398521       15.104331       22.548324      -33.013511
       54.580496 -3.1705435E-003    -0.013292662       15.322374       23.255422      -34.112682
       55.420196 -3.2596563E-004    -0.012002011       15.539210       23.992278      -35.232453
       56.259896  2.8041345E-003    -0.010524881       15.754786       24.761149      -36.372962
       57.099596  6.2244774E-003 -8.8602799E-003       15.969045       25.564520      -37.534346
       57.939296  9.9390440E-003 -7.0079614E-003       16.181929       26.405136      -38.716739
       58.778996     0.013950972 -4.9685197E-003       16.393376       27.286036      -39.920272
       59.618696     0.018262411 -2.7434605E-003       16.603324       28.210594      -41.145074
       60.458396     0.022874365 -3.3529151E-004       16.811705       29.182565      -42.391271
       61.298096     0.027786504  2.2523828E-003       17.018449       30.206144      -43.658982
       62.137795     0.032996947  5.0147583E-003       17.223483       31.286030      -44.948325
       62.977495     0.038501996  7.9457203E-003       17.426732       32.427505      -46.259410
       63.817195     0.044295848     0.011037729       17.628116       33.636526      -47.592341
       64.656895     0.050370229     0.014281666       17.827551       34.919841      -48.947216
       65.496595     0.056713996     0.017666726       18.024951       36.285119      -50.324124
       66.336295     0.063312655     0.021180250       18.220224       37.741118      -51.723146
       67.175995     0.070147806     0.024807555       18.413277       39.297882      -53.144353
       68.015695     0.077196507     0.028531764       18.604009       40.966989      -54.587805
       68.855395     0.084430535     0.032333613       18.792317       42.761856      -56.053551
       69.695095     0.091815540     0.036191242       18.978093       44.698116      -57.541626
       70.534795     0.099310075     0.040079974       19.161224       46.794099      -59.052051
       71.374495      0.10686450     0.043972070       19.341591       49.071439      -60.584830
       72.214195      0.11441971     0.047836466       19.519071       51.555854      -62.139952
       73.053895      0.12190577     0.051638507       19.693535       54.278157      -63.717385
       73.893595      0.12924031     0.055339639       19.864848       57.275587      -65.317076
       74.733295      0.13632679     0.058897072       20.032869       60.593573      -66.938953
       75.572994      0.14305258     0.062263460       20.197452       64.288117      -68.582916
       76.412694      0.14928687     0.065386512       20.358441       68.429066      -70.248840
       77.252394      0.15487840     0.068208612       20.515677       73.104666      -71.936570
       78.092094      0.15965308     0.070666392       20.668991       78.428054      -73.645922
       78.931794      0.16341148     0.072690299       20.818207       84.546696      -75.376676
       79.771494      0.16592626     0.074204114       20.963142       91.656482      -77.128577
       80.611194      0.16693964     0.075124516       21.103602       100.02338      -78.901330
       81.450894      0.16616095     0.075360534       21.239388       110.01783      -80.694595
       82.290594      0.16326440     0.074813033       21.370287       122.17170      -82.507989
       83.130294      0.15788735     0.073374234       21.496079       137.27687      -84.341077
       83.969994      0.14962904     0.070927170       21.616531       156.56629      -86.193369
