Results for:	
File:	C:\Users\User\OneDrive - Massachusetts Institute of Technology\Documents\MIT\Grad School\Classes\2.156\Lens Project\Prime Lenses\US08638507-1.zmx
Title:	
Date:	11/7/2025 5:50:38 PM

0 message(s) in output.
3 series table(s) in output.

Table series: Data for wavelength : 0.486133 µm.
   Y Angle (deg)       Tan Shift       Sag Shift     Real Height     Ref. Height      Distortion
  --------------  --------------  --------------  --------------  --------------  --------------
      0.00000000  3.2709089E-003  3.2709089E-003      0.00000000      0.00000000      0.00000000
      0.89000000  3.2666200E-003  3.2687248E-003     0.025973368     0.025975382 -7.7534727E-003
       1.7800000  3.2531040E-003  3.2621753E-003     0.051947187     0.051963304    -0.031016223
       2.6700000  3.2303875E-003  3.2512683E-003     0.077921909     0.077976331    -0.069793097
       3.5600000  3.1985141E-003  3.2360173E-003      0.10389798      0.10402707     -0.12409254
       4.4500000  3.1575452E-003  3.2164408E-003      0.12987587      0.13012822     -0.19392640
       5.3400000  3.1075587E-003  3.1925628E-003      0.15585602      0.15629256     -0.27930991
       6.2300000  3.0486499E-003  3.1644123E-003      0.18183888      0.18253299     -0.38026176
       7.1200000  2.9809305E-003  3.1320235E-003      0.20782493      0.20886256     -0.49680408
       8.0100000  2.9045284E-003  3.0954356E-003      0.23381461      0.23529452     -0.62896249
       8.9000000  2.8195879E-003  3.0546927E-003      0.25980840      0.26184230     -0.77676612
       9.7900000  2.7262686E-003  3.0098436E-003      0.28580675      0.28851955     -0.94024767
       10.680000  2.6247452E-003  2.9609419E-003      0.31181015      0.31534021      -1.1194434
       11.570000  2.5152074E-003  2.9080455E-003      0.33781907      0.34231848      -1.3143933
       12.460000  2.3978587E-003  2.8512168E-003      0.36383397      0.36946890      -1.5251410
       13.350000  2.2729163E-003  2.7905223E-003      0.38985536      0.39680635      -1.7517339
       14.240000  2.1406104E-003  2.7260324E-003      0.41588370      0.42434611      -1.9942232
       15.130000  2.0011833E-003  2.6578214E-003      0.44191949      0.45210387      -2.2526640
       16.020000  1.8548888E-003  2.5859668E-003      0.46796323      0.48009580      -2.5271153
       16.910000  1.7019917E-003  2.5105498E-003      0.49401541      0.50833856      -2.8176403
       17.800000  1.5427664E-003  2.4316542E-003      0.52007654      0.53684935      -3.1243062
       18.690000  1.3774964E-003  2.3493669E-003      0.54614711      0.56564597      -3.4471844
       19.580000  1.2064733E-003  2.2637769E-003      0.57222766      0.59474686      -3.7863505
       20.470000  1.0299958E-003  2.1749756E-003      0.59831867      0.62417112      -4.1418847
       21.360000  8.4836866E-004  2.0830561E-003      0.62442068      0.65393863      -4.5138716
       22.250000  6.6190164E-004  1.9881130E-003      0.65053421      0.68407006      -4.9024003
       23.140000  4.7090829E-004  1.8902418E-003      0.67665977      0.71458693      -5.3075648
       24.030000  2.7570484E-004  1.7895391E-003      0.70279789      0.74551171      -5.7294637
       24.920000  7.6608875E-005  1.6861014E-003      0.72894909      0.77686786      -6.1682007
       25.810000 -1.2606184E-004  1.5800252E-003      0.75511391      0.80867993      -6.6238846
       26.700000 -3.3199081E-004  1.4714064E-003      0.78129285      0.84097364      -7.0966293
       27.590000 -5.4086414E-004  1.3603401E-003      0.80748646      0.87377594      -7.5865540
       28.480000 -7.5237196E-004  1.2469194E-003      0.83369524      0.90711518      -8.0937836
       29.370000 -9.6620996E-004  1.1312357E-003      0.85991971      0.94102113      -8.6184485
       30.260000 -1.1820808E-003  1.0133776E-003      0.88616038      0.97552517      -9.1606847
       31.150000 -1.3996958E-003  8.9343051E-004      0.91241776       1.0106604      -9.7206346
       32.040000 -1.6187765E-003  7.7147606E-004      0.93869233       1.0464616      -10.298446
       32.930000 -1.8390560E-003  6.4759144E-004      0.96498458       1.0829658      -10.894274
       33.820000 -2.0602810E-003  5.2184873E-004      0.99129497       1.1202121      -11.508279
       34.710000 -2.2822134E-003  3.9431422E-004       1.0176239       1.1582418      -12.140629
       35.600000 -2.5046316E-003  2.6504753E-004       1.0439720       1.1970988      -12.791498
       36.490000 -2.7273326E-003  1.3410104E-004       1.0703394       1.2368299      -13.461067
       37.380000 -2.9501334E-003  1.5190005E-006       1.0967267       1.2774847      -14.149525
       38.270000 -3.1728724E-003 -1.3266352E-004       1.1231341       1.3191161      -14.857068
       39.160000 -3.3954118E-003 -2.6842125E-004       1.1495621       1.3617806      -15.583899
       40.050000 -3.6176382E-003 -4.0573986E-004       1.1760108       1.4055384      -16.330229
       40.940000 -3.8394645E-003 -5.4461685E-004       1.2024806       1.4504542      -17.096277
       41.830000 -4.0608313E-003 -6.8506321E-004       1.2289716       1.4965971      -17.882271
       42.720000 -4.2817080E-003 -8.2710356E-004       1.2554839       1.5440412      -18.688445
       43.610000 -4.5020941E-003 -9.7077808E-004       1.2820178       1.5928663      -19.515044
       44.500000 -4.7220197E-003 -1.1161436E-003       1.3085731       1.6431582      -20.362320
       45.390000 -4.9415467E-003 -1.2632750E-003       1.3351499       1.6950094      -21.230534
       46.280000 -5.1607692E-003 -1.4122666E-003       1.3617480       1.7485198      -22.119959
       47.170000 -5.3798134E-003 -1.5632338E-003       1.3883672       1.8037975      -23.030872
       48.060000 -5.5988376E-003 -1.7163146E-003       1.4150072       1.8609594      -23.963563
       48.950000 -5.8180319E-003 -1.8716714E-003       1.4416676       1.9201327      -24.918332
       49.840000 -6.0376170E-003 -2.0294930E-003       1.4683480       1.9814555      -25.895487
       50.730000 -6.2578428E-003 -2.1899964E-003       1.4950476       2.0450785      -26.895346
       51.620000 -6.4789867E-003 -2.3534291E-003       1.5217656       2.1111659      -27.918238
       52.510000 -6.7013504E-003 -2.5200710E-003       1.5485012       2.1798977      -28.964500
       53.400000 -6.9252573E-003 -2.6902376E-003       1.5752534       2.2514710      -30.034482
       54.290000 -7.1510478E-003 -2.8642816E-003       1.6020207       2.3261026      -31.128543
       55.180000 -7.3790749E-003 -3.0425967E-003       1.6288019       2.4040311      -32.247052
       56.070000 -7.6096982E-003 -3.2256197E-003       1.6555953       2.4855201      -33.390388
       56.960000 -7.8432766E-003 -3.4138344E-003       1.6823991       2.5708616      -34.558940
       57.850000 -8.0801612E-003 -3.6077744E-003       1.7092112       2.6603796      -35.753110
       58.740000 -8.3206853E-003 -3.8080274E-003       1.7360293       2.7544349      -36.973306
       59.630000 -8.5651546E-003 -4.0152385E-003       1.7628508       2.8534304      -38.219948
       60.520000 -8.8138350E-003 -4.2301148E-003       1.7896729       2.9578176      -39.493467
       61.410000 -9.0669399E-003 -4.4534300E-003       1.8164924       3.0681039      -40.794301
       62.300000 -9.3246151E-003 -4.6860286E-003       1.8433059       3.1848620      -42.122898
       63.190000 -9.5869228E-003 -4.9288317E-003       1.8701095       3.3087404      -43.479715
       64.080000 -9.8538238E-003 -5.1828421E-003       1.8968991       3.4404764      -44.865219
       64.970000    -0.010125159 -5.4491501E-003       1.9236702       3.5809121      -46.279881
       65.860000    -0.010400626 -5.7289402E-003       1.9504178       3.7310136      -47.724183
       66.750000    -0.010679760 -6.0234969E-003       1.9771366       3.8918948      -49.198612
       67.640000    -0.010961910 -6.3342126E-003       2.0038207       4.0648467      -50.703659
       68.530000    -0.011246211 -6.6625941E-003       2.0304638       4.2513742      -52.239824
       69.420000    -0.011531559 -7.0102714E-003       2.0570593       4.4532425      -53.807607
       70.310000    -0.011816587 -7.3790052E-003       2.0835998       4.6725356      -55.407513
       71.200000    -0.012099636 -7.7706960E-003       2.1100776       4.9117320      -57.040049
       72.090000    -0.012378725 -8.1873930E-003       2.1364844       5.1738026      -58.705722
       72.980000    -0.012651530 -8.6313037E-003       2.1628113       5.4623396      -60.405038
       73.870000    -0.012915354 -9.1048039E-003       2.1890487       5.7817277      -62.138501
       74.760000    -0.013167105 -9.6104476E-003       2.2151868       6.1373758      -63.906612
       75.650000    -0.013403273    -0.010150978       2.2412149       6.5360343      -65.709866
       76.540000    -0.013619911    -0.010729337       2.2671218       6.9862387      -67.548751
       77.430000    -0.013812625    -0.011348679       2.2928955       7.4989418      -69.423745
       78.320000    -0.013976558    -0.012012380       2.3185238       8.0884343      -71.335320
       79.210000    -0.014106393    -0.012724047       2.3439936       8.7737217      -73.283930
       80.100000    -0.014196352    -0.013487533       2.3692913       9.5806435      -75.270019
       80.990000    -0.014240212    -0.014306947       2.3944028       10.545248      -77.294012
       81.880000    -0.014231324    -0.015186661       2.4193132       11.719389      -79.356319
       82.770000    -0.014162644    -0.016131328       2.4440075       13.180450      -81.457329
       83.660000    -0.014026776    -0.017145883       2.4684697       15.049268      -83.597410
       84.550000    -0.013816025    -0.018235560       2.4926839       17.525611      -85.776908
       85.440000    -0.013522467    -0.019405893       2.5166334       20.965205      -87.996142
       86.330000    -0.013138020    -0.020662732       2.5403012       26.068839      -90.255411
       87.220000    -0.012654542    -0.022012244       2.5636703       34.434714      -92.554983
       88.110000    -0.012063931    -0.023460919       2.5867231       50.671400      -94.895102
       89.000000    -0.011358242    -0.025015578       2.6094422       95.793969      -97.275985

Table series: Data for wavelength : 0.587562 µm.
   Y Angle (deg)       Tan Shift       Sag Shift     Real Height     Ref. Height      Distortion
  --------------  --------------  --------------  --------------  --------------  --------------
      0.00000000     0.019740311     0.019740311      0.00000000      0.00000000      0.00000000
      0.89000000     0.019736129     0.019738035     0.025993669     0.025995684 -7.7510209E-003
       1.7800000     0.019723083     0.019731210     0.051987793     0.052003917    -0.031005762
       2.6700000     0.019701199     0.019719843     0.077982829     0.078037275    -0.069769261
       3.5600000     0.019670514     0.019703948      0.10397923      0.10410838     -0.12404992
       4.4500000     0.019631087     0.019683542      0.12997746      0.13022993     -0.19385953
       5.3400000     0.019582988     0.019658648      0.15597798      0.15641471     -0.27921325
       6.2300000     0.019526305     0.019629294      0.18198124      0.18267565     -0.38012968
       7.1200000     0.019461139     0.019595511      0.20798772      0.20902580     -0.49663085
       8.0100000     0.019387609     0.019557339      0.23399787      0.23547842     -0.62874225
       8.9000000     0.019305844     0.019514818      0.26001217      0.26204695     -0.77649289
       9.7900000     0.019215991     0.019467996      0.28603109      0.28874505     -0.93991531
       10.680000     0.019118209     0.019416923      0.31205511      0.31558667      -1.1190456
       11.570000     0.019012669     0.019361654      0.33808471      0.34258602      -1.3139236
       12.460000     0.018899557     0.019302248      0.36412036      0.36975766      -1.5245928
       13.350000     0.018779068     0.019238769      0.39016257      0.39711648      -1.7511003
       14.240000     0.018651409     0.019171283      0.41621182      0.42467776      -1.9934971
       15.130000     0.018516798     0.019099860      0.44226862      0.45245722      -2.2518381
       16.020000     0.018375463     0.019024574      0.46833346      0.48047103      -2.5261823
       16.910000     0.018227640     0.018945501      0.49440685      0.50873586      -2.8165924
       17.800000     0.018073572     0.018862720      0.52048930      0.53726894      -3.1231354
       18.690000     0.017913509     0.018776311      0.54658134      0.56608807      -3.4458825
       19.580000     0.017747710     0.018686359      0.57268347      0.59521169      -3.7849092
       20.470000     0.017576434     0.018592948      0.59879623      0.62465896      -4.1402953
       21.360000     0.017399946     0.018496165      0.62492014      0.65444973      -4.5121252
       22.250000     0.017218515     0.018396098      0.65105574      0.68460471      -4.9004878
       23.140000     0.017032409     0.018292834      0.67720356      0.71514543      -5.3054769
       24.030000     0.016841896     0.018186462      0.70336413      0.74609438      -5.7271908
       24.920000     0.016647243     0.018077070      0.72953800      0.77747504      -6.1657332
       25.810000     0.016448715     0.017964746      0.75572571      0.80931197      -6.6212124
       26.700000     0.016246572     0.017849576      0.78192779      0.84163092      -7.0937423
       27.590000     0.016041068     0.017731646      0.80814478      0.87445886      -7.5834421
       28.480000     0.015832449     0.017611038      0.83437722      0.90782415      -8.0904362
       29.370000     0.015620955     0.017487832      0.86062564      0.94175661      -8.6148551
       30.260000     0.015406811     0.017362106      0.88689057      0.97628761      -9.1568348
       31.150000     0.015190232     0.017233932      0.91317252       1.0114503      -9.7165174
       32.040000     0.014971420     0.017103379      0.93947201       1.0472795      -10.294051
       32.930000     0.014750559     0.016970512      0.96578954       1.0838123      -10.889590
       33.820000     0.014527817     0.016835387      0.99212559       1.1210876      -11.503296
       34.710000     0.014303340     0.016698057       1.0184806       1.1591470      -12.135336
       35.600000     0.014077255     0.016558566       1.0448551       1.1980344      -12.785885
       36.490000     0.013849666     0.016416949       1.0712495       1.2377966      -13.455124
       37.380000     0.013620650     0.016273234       1.0976642       1.2784831      -14.143242
       38.270000     0.013390259     0.016127438       1.1240995       1.3201471      -14.850435
       39.160000     0.013158516     0.015979568       1.1505558       1.3628449      -15.576907
       40.050000     0.012925412     0.015829619       1.1770335       1.4066370      -16.322869
       40.940000     0.012690909     0.015677574       1.2035327       1.4515879      -17.088541
       41.830000     0.012454934     0.015523400       1.2300537       1.4977668      -17.874150
       42.720000     0.012217378     0.015367052       1.2565967       1.5452480      -18.679933
       43.610000     0.011978099     0.015208466       1.2831618       1.5941113      -19.506135
       44.500000     0.011736915     0.015047562       1.3097490       1.6444425      -20.353008
       45.390000     0.011493606     0.014884241       1.3363582       1.6963342      -21.220815
       46.280000     0.011247916     0.014718385       1.3629895       1.7498864      -22.109829
       47.170000     0.010999547     0.014549851       1.3896426       1.8052073      -23.020329
       48.060000     0.010748165     0.014378476       1.4163172       1.8624139      -23.952607
       48.950000     0.010493394     0.014204068       1.4430129       1.9216334      -24.906962
       49.840000     0.010234824     0.014026412       1.4697292       1.9830042      -25.883704
       50.730000  9.9720082E-003     0.013845261       1.4964656       2.0466769      -26.883155
       51.620000  9.7044642E-003     0.013660338       1.5232211       2.1128160      -27.905642
       52.510000  9.4316801E-003     0.013471334       1.5499949       2.1816015      -28.951508
       53.400000  9.1531159E-003     0.013277901       1.5767860       2.2532307      -30.021102
       54.290000  8.8682081E-003     0.013079655       1.6035931       2.3279206      -31.114786
       55.180000  8.5763753E-003     0.012876171       1.6304147       2.4059100      -32.232930
       56.070000  8.2770241E-003     0.012666979       1.6572492       2.4874628      -33.375917
       56.960000  7.9695568E-003     0.012451564       1.6840949       2.5728710      -34.544138
       57.850000  7.6533797E-003     0.012229358       1.7109494       2.6624589      -35.737997
       58.740000  7.3279132E-003     0.011999741       1.7378107       2.7565877      -36.957904
       59.630000  6.9926030E-003     0.011762035       1.7646759       2.8556605      -38.204283
       60.520000  6.6469326E-003     0.011515500       1.7915423       2.9601293      -39.477567
       61.410000  6.2904381E-003     0.011259330       1.8184066       3.0705018      -40.778197
       62.300000  5.9227235E-003     0.010992648       1.8452653       3.1873512      -42.106624
       63.190000  5.5434792E-003     0.010714502       1.8721145       3.3113264      -43.463307
       64.080000  5.1525000E-003     0.010423859       1.8989499       3.4431654      -44.848716
       64.970000  4.7497077E-003     0.010119600       1.9257670       3.5837108      -46.263326
       65.860000  4.3351723E-003  9.8005123E-003       1.9525607       3.7339297      -47.707621
       66.750000  3.9091377E-003  9.4652853E-003       1.9793254       3.8949366      -49.182089
       67.640000  3.4720467E-003  9.1125028E-003       2.0060553       4.0680236      -50.687227
       68.530000  3.0245686E-003  8.7406362E-003       2.0327439       4.2546970      -52.223534
       69.420000  2.5676279E-003  8.3480366E-003       2.0593843       4.4567230      -53.791513
       70.310000  2.1024330E-003  7.9329271E-003       2.0859690       4.6761875      -55.391673
       71.200000  1.6305066E-003  7.4933946E-003       2.1124902       4.9155708      -57.024519
       72.090000  1.1537157E-003  7.0273810E-003       2.1389392       5.1778463      -58.690562
       72.980000  6.7430069E-004  6.5326741E-003       2.1653070       5.4666088      -60.390307
       73.870000  1.9490421E-004  6.0068981E-003       2.1915838       5.7862465      -62.124258
       74.760000 -2.8140216E-004  5.4475042E-003       2.2177594       6.1421726      -63.892916
       75.650000 -7.5109362E-004  4.8517599E-003       2.2438229       6.5411427      -65.696775
       76.540000 -1.2101712E-003  4.2167392E-003       2.2697627       6.9916990      -67.536321
       77.430000 -1.6541454E-003  3.5393121E-003       2.2955668       7.5048028      -69.412030
       78.320000 -2.0780245E-003  2.8161335E-003       2.3212224       8.0947560      -71.324369
       79.210000 -2.4763105E-003  2.0436329E-003       2.3467161       8.7805790      -73.273789
       80.100000 -2.8430012E-003  1.2180033E-003       2.3720340       9.5881314      -75.260727
       80.990000 -3.1716018E-003  3.3519202E-004       2.3971616       10.553490      -77.285603
       81.880000 -3.4551460E-003 -6.0911158E-004       2.4220839       11.728549      -79.348818
       82.770000 -3.6862274E-003 -1.6194848E-003       2.4467852       13.190752      -81.450753
       83.660000 -3.8570429E-003 -2.7007812E-003       2.4712494       15.061031      -83.591764
       84.550000 -3.9594481E-003 -3.8581394E-003       2.4954600       17.539309      -85.772187
       85.440000 -3.9850253E-003 -5.0969915E-003       2.5194002       20.981591      -87.992330
       86.330000 -3.9251648E-003 -6.4230703E-003       2.5430525       26.089213      -90.252475
       87.220000 -3.7711588E-003 -7.8424154E-003       2.5663996       34.461627      -92.552877
       88.110000 -3.5143086E-003 -9.3613791E-003       2.5894238       50.711003      -94.893764
       89.000000 -3.1460432E-003    -0.010986632       2.6121070       95.868839      -97.275333

Table series: Data for wavelength : 0.656273 µm.
   Y Angle (deg)       Tan Shift       Sag Shift     Real Height     Ref. Height      Distortion
  --------------  --------------  --------------  --------------  --------------  --------------
      0.00000000     0.030394948     0.030394948      0.00000000      0.00000000      0.00000000
      0.89000000     0.030390877     0.030392656     0.026025945     0.026027962 -7.7498301E-003
       1.7800000     0.030378206     0.030385785     0.052052349     0.052068489    -0.030998355
       2.6700000     0.030356960     0.030374340     0.078079672     0.078134172    -0.069751483
       3.5600000     0.030327178     0.030358336      0.10410838      0.10423765     -0.12401760
       4.4500000     0.030288914     0.030337789      0.13013892      0.13039163     -0.19380847
       5.3400000     0.030242239     0.030312722      0.15617177      0.15660893     -0.27913922
       6.2300000     0.030187238     0.030283163      0.18220739      0.18290247     -0.38002843
       7.1200000     0.030124010     0.030249144      0.20824625      0.20928535     -0.49649806
       8.0100000     0.030052669     0.030210702      0.23428882      0.23577081     -0.62857357
       8.9000000     0.029973343     0.030167879      0.26033557      0.26237232     -0.77628391
       9.7900000     0.029886175     0.030120721      0.28638698      0.28910358     -0.93966156
       10.680000     0.029791320     0.030069278      0.31244354      0.31597853      -1.1187426
       11.570000     0.029688944     0.030013605      0.33850572      0.34301141      -1.3135667
       12.460000     0.029579226     0.029953759      0.36457402      0.37021678      -1.5241772
       13.350000     0.029462358     0.029889805      0.39064893      0.39760957      -1.7506214
       14.240000     0.029338541     0.029821807      0.41673095      0.42520507      -1.9929500
       15.130000     0.029207986     0.029749835      0.44282058      0.45301903      -2.2512179
       16.020000     0.029070912     0.029673961      0.46891834      0.48106762      -2.5254840
       16.910000     0.028927549     0.029594260      0.49502472      0.50936755      -2.8158108
       17.800000     0.028778130     0.029510810      0.52114026      0.53793605      -3.1222654
       18.690000     0.028622899     0.029423691      0.54726548      0.56679096      -3.4449188
       19.580000     0.028462100     0.029332986      0.57340089      0.59595075      -3.7838464
       20.470000     0.028295987     0.029238777      0.59954704      0.62543458      -4.1391280
       21.360000     0.028124811     0.029141150      0.62570446      0.65526235      -4.5108478
       22.250000     0.027948828     0.029040190      0.65187369      0.68545477      -4.8990948
       23.140000     0.027768294     0.028935985      0.67805527      0.71603341      -5.3039624
       24.030000     0.027583463     0.028828620      0.70424975      0.74702079      -5.7255491
       24.920000     0.027394589     0.028718181      0.73045767      0.77844041      -6.1639584
       25.810000     0.027201919     0.028604754      0.75667958      0.81031688      -6.6192987
       26.700000     0.027005696     0.028488423      0.78291604      0.84267595      -7.0916836
       27.590000     0.026806157     0.028369271      0.80916758      0.87554465      -7.5812324
       28.480000     0.026603530     0.028247377      0.83543476      0.90895138      -8.0880695
       29.370000     0.026398032     0.028122818      0.86171811      0.94292596      -8.6123253
       30.260000     0.026189868     0.027995670      0.88801818      0.97749984      -9.1541359
       31.150000     0.025979231     0.027866001      0.91433549       1.0127062      -9.7136432
       32.040000     0.025766297     0.027733876      0.94067057       1.0485799      -10.290996
       32.930000     0.025551224     0.027599357      0.96702393       1.0851580      -10.886348
       33.820000     0.025334153     0.027462496      0.99339606       1.1224797      -11.499860
       34.710000     0.025115203     0.027323340       1.0197875       1.1605863      -12.131701
       35.600000     0.024894468     0.027181930       1.0461986       1.1995220      -12.782045
       36.490000     0.024672019     0.027038297       1.0726299       1.2393335      -13.451074
       37.380000     0.024447900     0.026892462       1.0990817       1.2800706      -14.138976
       38.270000     0.024222127     0.026744439       1.1255546       1.3217863      -14.845948
       39.160000     0.023994683     0.026594228       1.1520488       1.3645371      -15.572194
       40.050000     0.023765520     0.026441818       1.1785646       1.4083836      -16.317925
       40.940000     0.023534557     0.026287186       1.2051024       1.4533903      -17.083362
       41.830000     0.023301676     0.026130292       1.2316623       1.4996265      -17.868732
       42.720000     0.023066721     0.025971085       1.2582446       1.5471667      -18.674272
       43.610000     0.022829500     0.025809495       1.2848493       1.5960906      -19.500227
       44.500000     0.022589778     0.025645433       1.3114766       1.6464843      -20.346851
       45.390000     0.022347282     0.025478792       1.3381264       1.6984405      -21.214407
       46.280000     0.022101697     0.025309446       1.3647986       1.7520592      -22.103167
       47.170000     0.021852667     0.025137244       1.3914931       1.8074487      -23.013413
       48.060000     0.021599793     0.024962013       1.4182095       1.8647264      -23.945436
       48.950000     0.021342635     0.024783555       1.4449475       1.9240195      -24.899536
       49.840000     0.021080715     0.024601642       1.4717066       1.9854664      -25.876026
       50.730000     0.020813513     0.024416018       1.4984862       2.0492182      -26.875224
       51.620000     0.020540475     0.024226398       1.5252855       2.1154394      -27.897464
       52.510000     0.020261013     0.024032459       1.5521035       2.1843103      -28.943085
       53.400000     0.019974506     0.023833845       1.5789393       2.2560285      -30.012439
       54.290000     0.019680310     0.023630160       1.6057916       2.3308111      -31.105889
       55.180000     0.019377760     0.023420967       1.6326589       2.4088974      -32.223806
       56.070000     0.019066175     0.023205786       1.6595397       2.4905514      -33.366575
       56.960000     0.018744871     0.022984088       1.6864320       2.5760656      -34.534588
       57.850000     0.018413162     0.022755294       1.7133337       2.6657648      -35.728248
       58.740000     0.018070378     0.022518772       1.7402426       2.7600105      -36.947971
       59.630000     0.017715871     0.022273831       1.7671560       2.8592063      -38.194179
       60.520000     0.017349033     0.022019718       1.7940709       2.9638048      -39.467307
       61.410000     0.016969304     0.021755615       1.8209841       3.0743144      -40.767798
       62.300000     0.016576196     0.021480632       1.8478922       3.1913089      -42.096105
       63.190000     0.016169307     0.021193805       1.8747911       3.3154380      -43.452689
       64.080000     0.015748340     0.020894088       1.9016765       3.4474407      -44.838020
       64.970000     0.015313128     0.020580349       1.9285439       3.5881607      -46.252576
       65.860000     0.014863656     0.020251363       1.9553881       3.7385660      -47.696841
       66.750000     0.014400086     0.019905809       1.9822035       3.8997728      -49.171307
       67.640000     0.013922784     0.019542259       2.0089842       4.0730748      -50.676471
       68.530000     0.013432350     0.019159172       2.0357237       4.2599799      -52.212834
       69.420000     0.012929643     0.018754889       2.0624149       4.4622568      -53.780901
       70.310000     0.012415819     0.018327624       2.0890504       4.6819938      -55.381181
       71.200000     0.011892352     0.017875454       2.1156220       4.9216744      -57.014181
       72.090000     0.011361076     0.017396314       2.1421212       5.1842755      -58.680413
       72.980000     0.010824208     0.016887983       2.1685388       5.4733965      -60.380382
       73.870000     0.010284380     0.016348080       2.1948648       5.7934312      -62.114595
       74.760000  9.7446676E-003     0.015774051       2.2210890       6.1497992      -63.883552
       75.650000  9.2086152E-003     0.015163161       2.2472003       6.5492646      -65.687746
       76.540000  8.6802576E-003     0.014512480       2.2731870       7.0003804      -67.527665
       77.430000  8.1641375E-003     0.013818880       2.2990369       7.5141213      -69.403783
       78.320000  7.6653171E-003     0.013079016       2.3247370       8.1048071      -71.316566
       79.210000  7.1893845E-003     0.012289322       2.3502739       8.7914816      -73.266464
       80.100000  6.7424499E-003     0.011445995       2.3756334       9.6000368      -75.253914
       80.990000  6.3311356E-003     0.010544991       2.4008009       10.566594      -77.279331
       81.880000  5.9625541E-003  9.5820093E-003       2.4257610       11.743112      -79.343115
       82.770000  5.6442764E-003  8.5524850E-003       2.4504981       13.207130      -81.445643
       83.660000  5.3842878E-003  7.4515798E-003       2.4749958       15.079731      -83.587268
       84.550000  5.1909316E-003  6.2741728E-003       2.4992375       17.561087      -85.768321
       85.440000  5.0728396E-003  5.0148528E-003       2.5232061       21.007643      -87.989105
       86.330000  5.0388492E-003  3.6679106E-003       2.5468840       26.121608      -90.249896
       87.220000  5.0979078E-003  2.2273334E-003       2.5702537       34.504417      -92.550943
       88.110000  5.2589636E-003  6.8679866E-004       2.5932971       50.773970      -94.892467
       89.000000  5.5308441E-003 -9.6033154E-004       2.6159964       95.987877      -97.274660
