Results for:	
File:	C:\Users\User\OneDrive - Massachusetts Institute of Technology\Documents\MIT\Grad School\Classes\2.156\Lens Project\Prime Lenses\US07957079-1.ZMX
Title:	
Date:	11/7/2025 5:49:03 PM

0 message(s) in output.
3 series table(s) in output.

Table series: Data for wavelength : 0.486133 µm.
   Y Angle (deg)       Tan Shift       Sag Shift     Real Height     Ref. Height      Distortion
  --------------  --------------  --------------  --------------  --------------  --------------
      0.00000000     0.025353784     0.025353784      0.00000000      0.00000000      0.00000000
      0.30000000     0.025458505     0.025377862     0.032581554     0.032581130  1.3013227E-003
      0.60000000     0.025761020     0.025448876     0.065167419     0.065164047  5.1757979E-003
      0.90000000     0.026242828     0.025563228     0.097761814     0.097750537     0.011536596
       1.2000000     0.026874764     0.025715150      0.13036878      0.13034239     0.020244429
       1.5000000     0.027619175     0.025897025      0.16299209      0.16294139     0.031115175
       1.8000000     0.028432632     0.026099802      0.19563524      0.19554933     0.043929621
       2.1000000     0.029268917     0.026313457      0.22830136      0.22816801     0.058444522
       2.4000000     0.030082004     0.026527487      0.26099325      0.26079921     0.074404148
       2.7000000     0.030828784     0.026731385      0.29371339      0.29344474     0.091551521
       3.0000000     0.031471355     0.026915079      0.32646393      0.32610639      0.10963867
       3.3000000     0.031978729     0.027069305      0.35924678      0.35878598      0.12843541
       3.6000000     0.032327918     0.027185905      0.39206366      0.39148530      0.14773626
       3.9000000     0.032504397     0.027258044      0.42491615      0.42420617      0.16736546
       4.2000000     0.032502003     0.027280340      0.45780573      0.45695041      0.18717998
       4.5000000     0.032322373     0.027248919      0.49073391      0.48971985      0.20707073
       4.8000000     0.031974020     0.027161402      0.52370221      0.52251630      0.22696221
       5.1000000     0.031471185     0.027016833      0.55671224      0.55534160      0.24681075
       5.4000000     0.030832545     0.026815564      0.58976574      0.58819760      0.26660185
       5.7000000     0.030079905     0.026559112      0.62286459      0.62108613      0.28634664
       6.0000000     0.029236928     0.026249989      0.65601084      0.65400907      0.30607803
       6.3000000     0.028327966     0.025891526      0.68920672      0.68696826      0.32584644
       6.6000000     0.027377031     0.025487698      0.72245461      0.71996557      0.34571565
       6.9000000     0.026406935     0.025042949      0.75575707      0.75300289      0.36575866
       7.2000000     0.025438587     0.024562033      0.78911681      0.78608211      0.38605383
       7.5000000     0.024490470     0.024049866      0.82253667      0.81920511      0.40668129
       7.8000000     0.023578271     0.023511394      0.85601959      0.85237382      0.42771981
       8.1000000     0.022714649     0.022951483      0.88956860      0.88559014      0.44924395
       8.4000000     0.021909150     0.022374822      0.92318676      0.91885600      0.47132174
       8.7000000     0.021168207     0.021785851      0.95687719      0.95217334      0.49401273
       9.0000000     0.020495255     0.021188697      0.99064298      0.98554411      0.51736640
       9.3000000     0.019890907     0.020587132       1.0244872       1.0189703      0.54142103
       9.6000000     0.019353197     0.019984546       1.0584128       1.0524538      0.56620290
       9.9000000     0.018877863     0.019383931       1.0924228       1.0859967      0.59172574
       10.200000     0.018458673     0.018787876       1.1265200       1.1196010      0.61799060
       10.500000     0.018087759     0.018198572       1.1607070       1.1532686      0.64498592
       10.800000     0.017755976     0.017617826       1.1949865       1.1870017      0.67268777
       11.100000     0.017453255     0.017047084       1.2293607       1.2208022      0.70106041
       11.400000     0.017168954     0.016487454       1.2638320       1.2546722      0.73005697
       11.700000     0.016892199     0.015939738       1.2984024       1.2886138      0.75962020
       12.000000     0.016612206     0.015404461       1.3330737       1.3226291      0.78968352
       12.300000     0.016318575     0.014881910       1.3678476       1.3567202      0.82017192
       12.600000     0.016001564     0.014372169       1.4027257       1.3908892      0.85100318
       12.900000     0.015652323     0.013875151       1.4377093       1.4251383      0.88208895
       13.200000     0.015263095     0.013390634       1.4727995       1.4594697      0.91333593
       13.500000     0.014827376     0.012918295       1.5079974       1.4938854      0.94464707
       13.800000     0.014340035     0.012457736       1.5433037       1.5283878      0.97592276
       14.100000     0.013797394     0.012008519       1.5787193       1.5629791       1.0070619
       14.400000     0.013197257     0.011570183       1.6142446       1.5976615       1.0379631
       14.700000     0.012538908     0.011142272       1.6498802       1.6324372       1.0685256
       15.000000     0.011823055     0.010724346       1.6856265       1.6673087       1.0986504
       15.300000     0.011051753     0.010316003       1.7214839       1.7022781       1.1282408
       15.600000     0.010228277  9.9168807E-003       1.7574525       1.7373478       1.1572038
       15.900000  9.3569749E-003  9.5266690E-003       1.7935326       1.7725202       1.1854500
       16.200000  8.4430970E-003  9.1451099E-003       1.8297244       1.8077977       1.2128949
       16.500000  7.4926039E-003  8.7719974E-003       1.8660282       1.8431827       1.2394589
       16.800000  6.5119680E-003  8.4071734E-003       1.9024442       1.8786777       1.2650677
       17.100000  5.5079717E-003  8.0505204E-003       1.9389726       1.9142850       1.2896531
       17.400000  4.4875103E-003  7.7019517E-003       1.9756138       1.9500072       1.3131525
       17.700000  3.4574079E-003  7.3613995E-003       2.0123680       1.9858469       1.3355094
       18.000000  2.4242526E-003  7.0288010E-003       2.0492358       2.0218065       1.3566733
       18.300000  1.3942595E-003  6.7040825E-003       2.0862176       2.0578887       1.3766002
       18.600000  3.7316489E-004  6.3871431E-003       2.1233140       2.0940961       1.3952519
       18.900000 -6.3384144E-004  6.0778371E-003       2.1605257       2.1304313       1.4125966
       19.200000 -1.6221440E-003  5.7759559E-003       2.1978535       2.1668970       1.4286091
       19.500000 -2.5876866E-003  5.4812104E-003       2.2352984       2.2034960       1.4432707
       19.800000 -3.5269157E-003  5.1932124E-003       2.2728614       2.2402309       1.4565698
       20.100000 -4.4366832E-003  4.9114572E-003       2.3105439       2.2771045       1.4685023
       20.400000 -5.3141149E-003  4.6353061E-003       2.3483473       2.3141198       1.4790724
       20.700000 -6.1564495E-003  4.3639690E-003       2.3862734       2.3512795       1.4882935
       21.000000 -6.9608607E-003  4.0964884E-003       2.4243243       2.3885865       1.4961893
       21.300000 -7.7242720E-003  3.8317225E-003       2.4625023       2.4260438       1.5027951
       21.600000 -8.4431815E-003  3.5683291E-003       2.5008102       2.4636544       1.5081594
       21.900000 -9.1135148E-003  3.3047499E-003       2.5392513       2.5014212       1.5123456
       22.200000 -9.7305255E-003  3.0391937E-003       2.5778294       2.5393473       1.5154335
       22.500000    -0.010288769  2.7696201E-003       2.6165490       2.5774359       1.5175216
       22.800000    -0.010782176  2.4937220E-003       2.6554152       2.6156900       1.5187283
       23.100000    -0.011204247  2.2089077E-003       2.6944340       2.6541129       1.5191939
       23.400000    -0.011548417  1.9122817E-003       2.7336122       2.6927078       1.5190811
       23.700000    -0.011808592  1.6006242E-003       2.7729576       2.7314780       1.5185762
       24.000000    -0.011979921  1.2703695E-003       2.8124789       2.7704269       1.5178885
       24.300000    -0.012059808  9.1758321E-004       2.8521857       2.8095577       1.5172488
       24.600000    -0.012049203  5.3793788E-004       2.8920888       2.8488741       1.5169072
       24.900000    -0.011954183  1.2668848E-004       2.9321998       2.8883793       1.5171283
       25.200000    -0.011787817 -3.2135165E-004       2.9725308       2.9280771       1.5181854
       25.500000    -0.011572278 -8.1183235E-004       3.0130946       2.9679710       1.5203513
       25.800000    -0.011341123 -1.3508820E-003       3.0539042       3.0080647       1.5238873
       26.100000    -0.011141541 -1.9451111E-003       3.0949721       3.0483618       1.5290286
       26.400000    -0.011036267 -2.6015949E-003       3.1363102       3.0888662       1.5359670
       26.700000    -0.011104630 -3.3278203E-003       3.1779284       3.1295817       1.5448298
       27.000000    -0.011441887 -4.1315751E-003       3.2198345       3.1705122       1.5556559
       27.300000    -0.012155574 -5.0207461E-003       3.2620325       3.2116617       1.5683696
       27.600000    -0.013357022 -6.0029760E-003       3.3045217       3.2530343       1.5827529
       27.900000    -0.015145470 -7.0851060E-003       3.3472960       3.2946339       1.5984203
       28.200000    -0.017581494 -8.2723008E-003       3.3903420       3.3364648       1.6147990
       28.500000    -0.020645973 -9.5667087E-003       3.4336393       3.3785313       1.6311226
       28.800000    -0.024181106    -0.010965461       3.4771600       3.4208377       1.6464476
       29.100000    -0.027812262    -0.012457756       3.5208704       3.4633883       1.6597074
       29.400000    -0.030855708    -0.014020742       3.5647347       3.5061876       1.6698202
       29.700000    -0.032231388    -0.015613926       3.6087208       3.5492403       1.6758650
       30.000000    -0.030428954    -0.017172091       3.6528097       3.5925509       1.6773269

Table series: Data for wavelength : 0.587562 µm.
   Y Angle (deg)       Tan Shift       Sag Shift     Real Height     Ref. Height      Distortion
  --------------  --------------  --------------  --------------  --------------  --------------
      0.00000000     0.032566408     0.032566408      0.00000000      0.00000000      0.00000000
      0.30000000     0.032667662     0.032588947     0.032594064     0.032593653  1.2605970E-003
      0.60000000     0.032959659     0.032655346     0.065192361     0.065189093  5.0132439E-003
      0.90000000     0.033423990     0.032762026     0.097799033     0.097788108     0.011172146
       1.2000000     0.034031642     0.032903246      0.13041804      0.13039249     0.019599700
       1.5000000     0.034745173     0.033071429      0.16305310      0.16300402     0.030114066
       1.8000000     0.035521430     0.033257573      0.19570763      0.19562449     0.042498833
       2.1000000     0.036314525     0.033451715      0.22838470      0.22825570     0.056513997
       2.4000000     0.037078818     0.033643421      0.26108705      0.26089945     0.071907404
       2.7000000     0.037771632     0.033822265      0.29381711      0.29355752     0.088425894
       3.0000000     0.038355530     0.033978260      0.32657697      0.32623173      0.10582546
       3.3000000     0.038800017     0.034102235      0.35936851      0.35892388      0.12387991
       3.6000000     0.039082607     0.034186130      0.39219341      0.39163577      0.14238774
       3.9000000     0.039189274     0.034223209      0.42505320      0.42436922      0.16117704
       4.2000000     0.039114343     0.034208191      0.45794937      0.45712604      0.18010847
       4.5000000     0.038859912     0.034137301      0.49088336      0.48990807      0.19907640
       4.8000000     0.038434924     0.034008258      0.52385670      0.52271713      0.21800853
       5.1000000     0.037854007     0.033820198      0.55687096      0.55555505      0.23686416
       5.4000000     0.037136187     0.033573563      0.58992787      0.58842367      0.25563143
       5.7000000     0.036303569     0.033269950      0.62302930      0.62132485      0.27432389
       6.0000000     0.035380075     0.032911946      0.65617727      0.65426044      0.29297656
       6.3000000     0.034390272     0.032502953      0.68937400      0.68723230      0.31164176
       6.6000000     0.033358355     0.032047003      0.72262187      0.72024230      0.33038495
       6.9000000     0.032307280     0.031548595      0.75592342      0.75329232      0.34928060
       7.2000000     0.031258076     0.031012530      0.78928135      0.78638424      0.36840841
       7.5000000     0.030229323     0.030443760      0.82269849      0.81951998      0.38784974
       7.8000000     0.029236784     0.029847266      0.85617776      0.85270143      0.40768444
       8.1000000     0.028293188     0.029227938      0.88972219      0.88593052      0.42798815
       8.4000000     0.027408136     0.028590489      0.92333485      0.91920916      0.44882993
       8.7000000     0.026588118     0.027939371      0.95701882      0.95253931      0.47027035
       9.0000000     0.025836620     0.027278722      0.99077720      0.98592291      0.49235995
       9.3000000     0.025154311     0.026612323       1.0246130       1.0193619      0.51513814
       9.6000000     0.024539281     0.025943568       1.0585294       1.0528583      0.53863235
       9.9000000     0.023987330     0.025275446       1.0925291       1.0864141      0.56285760
       10.200000     0.023492291     0.024610545       1.1266150       1.1200313      0.58781633
       10.500000     0.023046366     0.023951050       1.1607899       1.1537119      0.61349843
       10.800000     0.022640480     0.023298763       1.1950562       1.1874579      0.63988162
       11.100000     0.022264638     0.022655117       1.2294164       1.2212714      0.66693192
       11.400000     0.021908270     0.022021211       1.2638728       1.2551544      0.69460431
       11.700000     0.021560572     0.021397831       1.2984273       1.2891091      0.72284360
       12.000000     0.021210822     0.020785488       1.3330820       1.3231374      0.75158532
       12.300000     0.020848674     0.020184452       1.3678384       1.3572416      0.78075676
       12.600000     0.020464431     0.019594787       1.4026982       1.3914238      0.81027809
       12.900000     0.020049272     0.019016384       1.4376627       1.4256861      0.84006345
       13.200000     0.019595453     0.018448998       1.4727332       1.4600306      0.87002213
       13.500000     0.019096465     0.017892278       1.5079106       1.4944596      0.90005976
       13.800000     0.018547155     0.017345800       1.5431960       1.5289753      0.93007943
       14.100000     0.017943798     0.016809092       1.5785899       1.5635798      0.95998284
       14.400000     0.017284137     0.016281661       1.6140932       1.5982755      0.98967136
       14.700000     0.016567370     0.015763013       1.6497064       1.6330647       1.0190471
       15.000000     0.015794107     0.015252670       1.6854298       1.6679495       1.0480137
       15.300000     0.014966285     0.014750187       1.7212640       1.7029323       1.0764773
       15.600000     0.014087054     0.014255159       1.7572093       1.7380156       1.1043476
       15.900000     0.013160629     0.013767227       1.7932660       1.7732015       1.1315377
       16.200000     0.012192126     0.013286087       1.8294343       1.8084926       1.1579657
       16.500000     0.011187377     0.012811483       1.8657146       1.8438912       1.1835544
       16.800000     0.010152740     0.012343206       1.9021072       1.8793997       1.2082319
       17.100000  9.0948983E-003     0.011881088       1.9386125       1.9150208       1.2319319
       17.400000  8.0206792E-003     0.011424991       1.9752308       1.9507567       1.2545941
       17.700000  6.9368714E-003     0.010974799       2.0119625       1.9866102       1.2761636
       18.000000  5.8500713E-003     0.010530402       2.0488083       2.0225836       1.2965920
       18.300000  4.7665512E-003     0.010091682       2.0857685       2.0586797       1.3158365
       18.600000  3.6921617E-003  9.6584970E-003       2.1228440       2.0949010       1.3338607
       18.900000  2.6322690E-003  9.2306672E-003       2.1600355       2.1312501       1.3506342
       19.200000  1.5917324E-003  8.8079546E-003       2.1973439       2.1677299       1.3661328
       19.500000  5.7492273E-004  8.3900484E-003       2.2347703       2.2043429       1.3803389
       19.800000 -4.1421815E-004  7.9765471E-003       2.2723158       2.2410919       1.3932421
       20.100000 -1.3720795E-003  7.5669422E-003       2.3099817       2.2779798       1.4048392
       20.400000 -2.2952501E-003  7.1606017E-003       2.3477698       2.3150092       1.4151352
       20.700000 -3.1803595E-003  6.7567546E-003       2.3856817       2.3521832       1.4241441
       21.000000 -4.0239019E-003  6.3544749E-003       2.4237197       2.3895046       1.4318904
       21.300000 -4.8220557E-003  5.9526663E-003       2.4618861       2.4269763       1.4384099
       21.600000 -5.5705122E-003  5.5500474E-003       2.5001840       2.4646013       1.4437515
       21.900000 -6.2643327E-003  5.1451366E-003       2.5386166       2.5023826       1.4479787
       22.200000 -6.8978535E-003  4.7362360E-003       2.5771878       2.5403233       1.4511715
       22.500000 -7.4646627E-003  4.3214164E-003       2.6159021       2.5784265       1.4534283
       22.800000 -7.9576737E-003  3.8985005E-003       2.6547648       2.6166954       1.4548671
       23.100000 -8.3693234E-003  3.4650453E-003       2.6937819       2.6551330       1.4556273
       23.400000 -8.6919255E-003  3.0183237E-003       2.7329602       2.6937428       1.4558711
       23.700000 -8.9182088E-003  2.5553049E-003       2.7723076       2.7325279       1.4557832
       24.000000 -9.0420729E-003  2.0726328E-003       2.8118327       2.7714917       1.4555714
       24.300000 -9.0595904E-003  1.5666035E-003       2.8515454       2.8106376       1.4554648
       24.600000 -8.9702831E-003  1.0331414E-003       2.8914564       2.8499690       1.4557111
       24.900000 -8.7786876E-003  4.6777473E-004       2.9315770       2.8894895       1.4565731
       25.200000 -8.4962121E-003 -1.3438890E-004       2.9719197       2.9292025       1.4583214
       25.500000 -8.1432539E-003 -7.7868430E-004       3.0124972       2.9691118       1.4612268
       25.800000 -7.7514977E-003 -1.4709051E-003       3.0533224       3.0092208       1.4655489
       26.100000 -7.3662317E-003 -2.2173094E-003       3.0944080       3.0495335       1.4715219
       26.400000 -7.0483889E-003 -3.0246048E-003       3.1357657       3.0900534       1.4793375
       26.700000 -6.8758185E-003 -3.8999014E-003       3.1774059       3.1307846       1.4891241
       27.000000 -6.9430029E-003 -4.8506097E-003       3.2193361       3.1717308       1.5009236
       27.300000 -7.3580135E-003 -5.8842525E-003       3.2615608       3.2128962       1.5146648
       27.600000 -8.2349476E-003 -7.0081451E-003       3.3040796       3.2542846       1.5301360
       27.900000 -9.6794030E-003 -8.2288745E-003       3.3468864       3.2959002       1.5469589
       28.200000    -0.011763823 -9.5514806E-003       3.3899685       3.3377472       1.5645676
       28.500000    -0.014489018    -0.010978204       3.4333055       3.3798299       1.5821990
       28.800000    -0.017728372    -0.012506614       3.4768694       3.4221525       1.5989045
       29.100000    -0.021153152    -0.014126889       3.5206261       3.4647195       1.6135966
       29.400000    -0.024142968    -0.015817964       3.5645378       3.5075353       1.6251443
       29.700000    -0.025698104    -0.017542307       3.6085693       3.5506045       1.6325352
       30.000000    -0.024396354    -0.019239254       3.6526963       3.5939317       1.6351056

Table series: Data for wavelength : 0.656273 µm.
   Y Angle (deg)       Tan Shift       Sag Shift     Real Height     Ref. Height      Distortion
  --------------  --------------  --------------  --------------  --------------  --------------
      0.00000000     0.042909139     0.042909139      0.00000000      0.00000000      0.00000000
      0.30000000     0.043009909     0.042931344     0.032601235     0.032600829  1.2438470E-003
      0.60000000     0.043300279     0.042996734     0.065206671     0.065203446  4.9463868E-003
      0.90000000     0.043761762     0.043101713     0.097820419     0.097809638     0.011022250
       1.2000000     0.044365223     0.043240516      0.13044641      0.13042120     0.019334527
       1.5000000     0.045073074     0.043405533      0.16308833      0.16303991     0.029702316
       1.8000000     0.045842001     0.043587725      0.19574957      0.19566756     0.041910365
       2.1000000     0.046625969     0.043777089      0.22843317      0.22830596     0.055720005
       2.4000000     0.047379210     0.043963154      0.26114186      0.26095689     0.070880568
       2.7000000     0.048058960     0.044135458      0.29387802      0.29362216     0.087140480
       3.0000000     0.048627746     0.044283988      0.32664376      0.32630356      0.10425738
       3.3000000     0.049055089     0.044399553      0.35944091      0.35900290      0.12200675
       3.6000000     0.049318579     0.044474080      0.39227115      0.39172200      0.14018875
       3.9000000     0.049404318     0.044500832      0.42513599      0.42446265      0.15863309
       4.2000000     0.049306806     0.044474538      0.45803691      0.45722669      0.17720198
       4.5000000     0.049028356     0.044391440      0.49097535      0.49001594      0.19579125
       4.8000000     0.048578157     0.044249282      0.52395280      0.52283222      0.21432998
       5.1000000     0.047971098     0.044047236      0.55697087      0.55567737      0.23277870
       5.4000000     0.047226478     0.043785781      0.59003125      0.58855323      0.25112669
       5.7000000     0.046366673     0.043466561      0.62313580      0.62146165      0.26938853
       6.0000000     0.045415868     0.043092210      0.65628656      0.65440449      0.28760014
       6.3000000     0.044398878     0.042666179      0.68948573      0.68738361      0.30581465
       6.6000000     0.043340125     0.042192552      0.72273568      0.72040087      0.32409823
       6.9000000     0.042262769     0.041675877      0.75603896      0.75345817      0.34252601
       7.2000000     0.041188016     0.041121004      0.78939826      0.78655739      0.36117823
       7.5000000     0.040134596     0.040532932      0.82281640      0.81970042      0.38013677
       7.8000000     0.039118394     0.039916685      0.85629632      0.85288918      0.39948195
       8.1000000     0.038152237     0.039277196      0.88984101      0.88612558      0.41928985
       8.4000000     0.037245794     0.038619210      0.92345356      0.91941155      0.43962997
       8.7000000     0.036405602     0.037947215      0.95713705      0.95274904      0.46056329
       9.0000000     0.035635175     0.037265377      0.99089457      0.98613999      0.48214080
       9.3000000     0.034935186     0.036577500       1.0247292       1.0195864      0.50440234
       9.6000000     0.034303714     0.035886998       1.0586439       1.0530901      0.52737583
       9.9000000     0.033736537     0.035196879       1.0926416       1.0866533      0.55107681
       10.200000     0.033227450     0.034509741       1.1267252       1.1202779      0.57550826
       10.500000     0.032768609     0.033827778       1.1608973       1.1539659      0.60066070
       10.800000     0.032350886     0.033152796       1.1951606       1.1877193      0.62651249
       11.100000     0.031964226     0.032486234       1.2295173       1.2215403      0.65303034
       11.400000     0.031597997     0.031829187       1.2639698       1.2554308      0.68017003
       11.700000     0.031241330     0.031182440       1.2985202       1.2893929      0.70787717
       12.000000     0.030883439     0.030546498       1.3331704       1.3234288      0.73608816
       12.300000     0.030513913     0.029921624       1.3679220       1.3575405      0.76473123
       12.600000     0.030122992     0.029307874       1.4027767       1.3917302      0.79372751
       12.900000     0.029701796     0.028705127       1.4377358       1.4260000      0.82299217
       13.200000     0.029242525     0.028113127       1.4728006       1.4603521      0.85243555
       13.500000     0.028738621     0.027531512       1.5079722       1.4947887      0.88196437
       13.800000     0.028184882     0.026959844       1.5432513       1.5293119      0.91148285
       14.100000     0.027577548     0.026397638       1.5786390       1.5639241      0.94089381
       14.400000     0.026914324     0.025844388       1.6141357       1.5986274      0.97009978
       14.700000     0.026194387     0.025299585       1.6497422       1.6334242      0.99900398
       15.000000     0.025418327     0.024762738       1.6854589       1.6683167       1.0275112
       15.300000     0.024588074     0.024233389       1.7212862       1.7033073       1.0555289
       15.600000     0.023706780     0.023711119       1.7572245       1.7383982       1.0829676
       15.900000     0.022778673     0.023195560       1.7932742       1.7735919       1.1097417
       16.200000     0.021808894     0.022686394       1.8294356       1.8088908       1.1357701
       16.500000     0.020803314     0.022183356       1.8657090       1.8442972       1.1609768
       16.800000     0.019768343     0.021686228       1.9020948       1.8798135       1.1852907
       17.100000     0.018710738     0.021194836       1.9385933       1.9154424       1.2086466
       17.400000     0.017637414     0.020709037       1.9752050       1.9511862       1.2309848
       17.700000     0.016555273     0.020228710       2.0119304       1.9870476       1.2522515
       18.000000     0.015471044     0.019753745       2.0487699       2.0230289       1.2723987
       18.300000     0.014391161     0.019284027       2.0857243       2.0591329       1.2913846
       18.600000     0.013321664     0.018819417       2.1227941       2.0953622       1.3091731
       18.900000     0.012268141     0.018359745       2.1599803       2.1317194       1.3257345
       19.200000     0.011235707     0.017904783       2.1972838       2.1682072       1.3410451
       19.500000     0.010229027     0.017454237       2.2347056       2.2048282       1.3550881
       19.800000  9.2523749E-003     0.017007726       2.2722469       2.2415854       1.3678531
       20.100000  8.3097406E-003     0.016564766       2.3099093       2.2784813       1.3793374
       20.400000  7.4049586E-003     0.016124755       2.3476942       2.3155190       1.3895465
       20.700000  6.5418722E-003     0.015686959       2.3856035       2.3527011       1.3984949
       21.000000  5.7245111E-003     0.015250493       2.4236395       2.3900307       1.4062071
       21.300000  4.9572749E-003     0.014814311       2.4618046       2.4275106       1.4127192
       21.600000  4.2451056E-003     0.014377187       2.5001017       2.4651439       1.4180805
       21.900000  3.5936322E-003     0.013937703       2.5385342       2.5029336       1.4223547
       22.200000  3.0092666E-003     0.013494233       2.5771060       2.5408826       1.4256218
       22.500000  2.4992275E-003     0.013044928       2.6158218       2.5789942       1.4279803
       22.800000  2.0714667E-003     0.012587699       2.6546866       2.6172715       1.4295481
       23.100000  1.7344688E-003     0.012120202       2.6937067       2.6557176       1.4304646
       23.400000  1.4968966E-003     0.011639817       2.7328889       2.6943359       1.4308916
       23.700000  1.3670478E-003     0.011143632       2.7722410       2.7331295       1.4310136
       24.000000  1.3520932E-003     0.010628416       2.8117717       2.7721019       1.4310378
       24.300000  1.4570637E-003     0.010090605       2.8514909       2.8112564       1.4311926
       24.600000  1.6835602E-003  9.5262677E-003       2.8914092       2.8505965       1.4317252
       24.900000  2.0281658E-003  8.9310904E-003       2.9315382       2.8901257       1.4328973
       25.200000  2.4805584E-003  8.3003460E-003       2.9718902       2.9298475       1.4349790
       25.500000  3.0213488E-003  7.6288737E-003       3.0124778       2.9697655       1.4382401
       25.800000  3.6197206E-003  6.9110612E-003       3.0533142       3.0098834       1.4429394
       26.100000  4.2310271E-003  6.1408378E-003       3.0944118       3.0502049       1.4493106
       26.400000  4.7946307E-003  5.3116869E-003       3.1357826       3.0907338       1.4575451
       26.700000  5.2324678E-003  4.4166910E-003       3.1774368       3.1314739       1.4677716
       27.000000  5.4491121E-003  3.4486293E-003       3.2193822       3.1724292       1.4800326
       27.300000  5.3345280E-003  2.4001604E-003       3.2616231       3.2136036       1.4942581
       27.600000  4.7712561E-003  1.2641339E-003       3.3041594       3.2550011       1.5102383
       27.900000  3.6484637E-003  3.4100191E-005       3.3469850       3.2966259       1.5275967
       28.200000  1.8860226E-003 -1.2948883E-003       3.3900873       3.3384821       1.5457693
       28.500000 -5.2767375E-004 -2.7250488E-003       3.4334460       3.3805740       1.5639932
       28.800000 -3.4805933E-003 -4.2540338E-003       3.4770330       3.4229060       1.5813173
       29.100000 -6.6629392E-003 -5.8722585E-003       3.5208138       3.4654823       1.5966450
       29.400000 -9.4777292E-003 -7.5591219E-003       3.5647501       3.5083075       1.6088262
       29.700000    -0.010952135 -9.2778719E-003       3.6088055       3.5513862       1.6168135
       30.000000 -9.6907574E-003    -0.010969048       3.6529534       3.5947230       1.6198867
