Results for:	
File:	C:\Users\User\OneDrive - Massachusetts Institute of Technology\Documents\MIT\Grad School\Classes\2.156\Lens Project\Prime Lenses\US003524697_Example01P.zmx
Title:	US 3,524,697 Example 1 (Nikon Fisheye-Nikkor 6mm f/5.6)
Date:	11/7/2025 5:35:17 PM

0 message(s) in output.
3 series table(s) in output.

Table series: Data for wavelength : 0.486133 µm.
   Y Angle (deg)       Tan Shift       Sag Shift     Real Height     Ref. Height      Distortion
  --------------  --------------  --------------  --------------  --------------  --------------
      0.00000000    -0.048547213    -0.048547213      0.00000000      0.00000000      0.00000000
      0.89000000    -0.048521171    -0.048504118     0.095894629     0.095903058 -8.7884029E-003
       1.7800000    -0.048440771    -0.048374834      0.19178497      0.19185241    -0.035152401
       2.6700000    -0.048306160    -0.048159362      0.28766675      0.28789446    -0.079094423
       3.5600000    -0.048117583    -0.047857703      0.38353568      0.38407576     -0.14061751
       4.4500000    -0.047875384    -0.047469861      0.47938749      0.48044315     -0.21972595
       5.3400000    -0.047580004    -0.046995839      0.57521792      0.57704383     -0.31642523
       6.2300000    -0.047231981    -0.046435642      0.67102272      0.67392546     -0.43072211
       7.1200000    -0.046831952    -0.045789278      0.76679764      0.77113624     -0.56262464
       8.0100000    -0.046380646    -0.045056753      0.86253847      0.86872502     -0.71214210
       8.9000000    -0.045878892    -0.044238080      0.95824098      0.96674140     -0.87928512
       9.7900000    -0.045327609    -0.043333270       1.0539010       1.0652358      -1.0640657
       10.680000    -0.044727812    -0.042342340       1.1495144       1.1642597      -1.2664970
       11.570000    -0.044080607    -0.041265309       1.2450769       1.2638655      -1.4865938
       12.460000    -0.043387191    -0.040102201       1.3405846       1.3641069      -1.7243723
       13.350000    -0.042648851    -0.038853043       1.4360332       1.4650388      -1.9798499
       14.240000    -0.041866962    -0.037517869       1.5314188       1.5667176      -2.2530457
       15.130000    -0.041042985    -0.036096717       1.6267372       1.6692014      -2.5439804
       16.020000    -0.040178467    -0.034589634       1.7219846       1.7725497      -2.8526762
       16.910000    -0.039275035    -0.032996671       1.8171569       1.8768241      -3.1791567
       17.800000    -0.038334401    -0.031317889       1.9122502       1.9820881      -3.5234477
       18.690000    -0.037358354    -0.029553358       2.0072607       2.0884073      -3.8855762
       19.580000    -0.036348760    -0.027703158       2.1021844       2.1958500      -4.2655713
       20.470000    -0.035307559    -0.025767379       2.1970177       2.3044866      -4.6634639
       21.360000    -0.034236766    -0.023746123       2.2917566       2.4143905      -5.0792868
       22.250000    -0.033138462    -0.021639506       2.3863976       2.5256379      -5.5130749
       23.140000    -0.032014798    -0.019447656       2.4809370       2.6383085      -5.9648649
       24.030000    -0.030867989    -0.017170718       2.5753711       2.7524851      -6.4346959
       24.920000    -0.029700310    -0.014808853       2.6696963       2.8682544      -6.9226090
       25.810000    -0.028514097    -0.012362239       2.7639093       2.9857069      -7.4286479
       26.700000    -0.027311739 -9.8310739E-003       2.8580064       3.1049377      -7.9528582
       27.590000    -0.026095678 -7.2155749E-003       2.9519843       3.2260463      -8.4952885
       28.480000    -0.024868406 -4.5159823E-003       3.0458397       3.3491372      -9.0559895
       29.370000    -0.023632459 -1.7325592E-003       3.1395693       3.4743206      -9.6350149
       30.260000    -0.022390415  1.1344059E-003       3.2331697       3.6017121      -10.232421
       31.150000    -0.021144889  4.0845984E-003       3.3266379       3.7314338      -10.848267
       32.040000    -0.019898531  7.1176749E-003       3.4199707       3.8636147      -11.482615
       32.930000    -0.018654020     0.010233262       3.5131651       3.9983911      -12.135530
       33.820000    -0.017414061     0.013430953       3.6062181       4.1359070      -12.807081
       34.710000    -0.016181379     0.016710310       3.6991267       4.2763155      -13.497339
       35.600000    -0.014958716     0.020070857       3.7918881       4.4197786      -14.206380
       36.490000    -0.013748826     0.023512079       3.8844994       4.5664688      -14.934283
       37.380000    -0.012554469     0.027033423       3.9769579       4.7165693      -15.681129
       38.270000    -0.011378407     0.030634291       4.0692610       4.8702755      -16.447006
       39.160000    -0.010223398     0.034314043       4.1614060       5.0277960      -17.232003
       40.050000 -9.0921907E-003     0.038071989       4.2533904       5.1893533      -18.036215
       40.940000 -7.9875180E-003     0.041907388       4.3452116       5.3551858      -18.859741
       41.830000 -6.9120926E-003     0.045819450       4.4368673       5.5255487      -19.702685
       42.720000 -5.8685997E-003     0.049807326       4.5283550       5.7007159      -20.565153
       43.610000 -4.8596909E-003     0.053870110       4.6196725       5.8809819      -21.447259
       44.500000 -3.8879770E-003     0.058006835       4.7108175       6.0666633      -22.349120
       45.390000 -2.9560219E-003     0.062216466       4.8017878       6.2581019      -23.270859
       46.280000 -2.0663351E-003     0.066497903       4.8925813       6.4556663      -24.212605
       47.170000 -1.2213632E-003     0.070849975       4.9831960       6.6597554      -25.174490
       48.060000 -4.2348399E-004     0.075271433       5.0736297       6.8708016      -26.156655
       48.950000  3.2500336E-004     0.079760950       5.1638806       7.0892738      -27.159244
       49.840000  1.0218860E-003     0.084317117       5.2539468       7.3156824      -28.182410
       50.730000  1.6650465E-003     0.088938436       5.3438263       7.5505831      -29.226309
       51.620000  2.2524716E-003     0.093623320       5.4335174       7.7945829      -30.291107
       52.510000  2.7822623E-003     0.098370082       5.5230183       8.0483458      -31.376976
       53.400000  3.2526431E-003      0.10317694       5.6123273       8.3125998      -32.484092
       54.290000  3.6619739E-003      0.10804199       5.7014426       8.5881451      -33.612642
       55.180000  4.0087587E-003      0.11296325       5.7903627       8.8758630      -34.762821
       56.070000  4.2916590E-003      0.11793858       5.8790858       9.1767267      -35.934827
       56.960000  4.5095039E-003      0.12296575       5.9676105       9.4918139      -37.128872
       57.850000  4.6613041E-003      0.12804239       6.0559350       9.8223210      -38.345173
       58.740000  4.7462632E-003      0.13316598       6.1440580       10.169580      -39.583956
       59.630000  4.7637922E-003      0.13833388       6.2319777       10.535079      -40.845458
       60.520000  4.7135232E-003      0.14354329       6.3196927       10.920484      -42.129922
       61.410000  4.5953243E-003      0.14879125       6.4072014       11.327670      -43.437603
       62.300000  4.4093144E-003      0.15407465       6.4945024       11.758749      -44.768766
       63.190000  4.1558795E-003      0.15939020       6.5815939       12.216118      -46.123686
       64.080000  3.8356900E-003      0.16473441       6.6684745       12.702497      -47.502648
       64.970000  3.4497169E-003      0.17010362       6.7551425       13.220996      -48.905948
       65.860000  2.9992511E-003      0.17549397       6.8415963       13.775182      -50.333895
       66.750000  2.4859219E-003      0.18090137       6.9278341       14.369167      -51.786809
       67.640000  1.9117163E-003      0.18632153       7.0138543       15.007719      -53.265020
       68.530000  1.2790009E-003      0.19174991       7.0996550       15.696392      -54.768874
       69.420000  5.9054192E-004      0.19718173       7.1852343       16.441705      -56.298728
       70.310000 -1.5047140E-004      0.20261194       7.2705902       17.251352      -57.854953
       71.200000 -9.4040546E-004      0.20803524       7.3557207       18.134483      -59.437935
       72.090000 -1.7751553E-003      0.21344602       7.4406235       19.102067      -61.048071
       72.980000 -2.6501245E-003      0.21883838       7.5252964       20.167367      -62.685777
       73.870000 -3.5601939E-003      0.22420610       7.6097367       21.346572      -64.351481
       74.760000 -4.4996996E-003      0.22954261       7.6939420       22.659652      -66.045630
       75.650000 -5.4624030E-003      0.23484100       7.7779093       24.131529      -67.768683
       76.540000 -6.4414657E-003      0.24009399       7.8616358       25.793717      -69.521121
       77.430000 -7.4294172E-003      0.24529389       7.9451181       27.686655      -71.303438
       78.320000 -8.4181307E-003      0.25043261       8.0283529       29.863106      -73.116149
       79.210000 -9.3987880E-003      0.25550161       8.1113363       32.393238      -74.959786
       80.100000    -0.010361855      0.26049189       8.1940646       35.372454      -76.834899
       80.990000    -0.011297048      0.26539397       8.2765333       38.933847      -78.742061
       81.880000    -0.012193305      0.27019785       8.3587378       43.268863      -80.681864
       82.770000    -0.013038756      0.27489298       8.4406734       48.663210      -82.654919
       83.660000    -0.013820698      0.27946825       8.5223345       55.563027      -84.661861
       84.550000    -0.014525558      0.28391194       8.6037155       64.705871      -86.703346
       85.440000    -0.015138876      0.28821167       8.6848103       77.405109      -88.780055
       86.330000    -0.015645272      0.29235443       8.7656122       96.248107      -90.892691
       87.220000    -0.016028432      0.29632645       8.8461141       127.13555      -93.041982
       88.110000    -0.016271076      0.30011323       8.9263083       187.08261      -95.228681
       89.000000    -0.016354947      0.30369949       9.0061866       353.67852      -97.453567

Table series: Data for wavelength : 0.587562 µm.
   Y Angle (deg)       Tan Shift       Sag Shift     Real Height     Ref. Height      Distortion
  --------------  --------------  --------------  --------------  --------------  --------------
      0.00000000 -4.3450116E-003 -4.3450116E-003      0.00000000      0.00000000      0.00000000
      0.89000000 -4.3409699E-003 -4.3092532E-003     0.096264897     0.096273376 -8.8071280E-003
       1.7800000 -4.3244602E-003 -4.2019789E-003      0.19252538      0.19259323    -0.035229098
       2.6700000 -4.2956501E-003 -4.0231912E-003      0.28877704      0.28900613    -0.079267664
       3.5600000 -4.2548192E-003 -3.7728947E-003      0.38501547      0.38555882     -0.14092575
       4.4500000 -4.2023588E-003 -3.4510955E-003      0.48123627      0.48229833     -0.22020747
       5.3400000 -4.1387718E-003 -3.0578021E-003      0.57743505      0.57927202     -0.31711812
       6.2300000 -4.0646718E-003 -2.5930253E-003      0.67360742      0.67652775     -0.43166420
       7.1200000 -3.9807831E-003 -2.0567784E-003      0.76974903      0.77411390     -0.56385343
       8.0100000 -3.8879398E-003 -1.4490774E-003      0.86585552      0.87207950     -0.71369477
       8.9000000 -3.7870849E-003 -7.6994183E-004      0.96192255      0.97047436     -0.88119845
       9.7900000 -3.6792699E-003 -1.9394616E-005       1.0579458       1.0693491      -1.0663760
       10.680000 -3.5656534E-003  8.0253713E-004       1.1539210       1.1687553      -1.2692401
       11.570000 -3.4475005E-003  1.6958218E-003       1.2498439       1.2687458      -1.4898051
       12.460000 -3.3261810E-003  2.6604225E-003       1.3457102       1.3693742      -1.7280864
       13.350000 -3.2031693E-003  3.6962968E-003       1.4415158       1.4706959      -1.9841010
       14.240000 -3.0800418E-003  4.8033959E-003       1.5372563       1.5727673      -2.2578672
       15.130000 -2.9584762E-003  5.9816638E-003       1.6329278       1.6756468      -2.5494050
       16.020000 -2.8402502E-003  7.2310368E-003       1.7285260       1.7793942      -2.8587358
       16.910000 -2.7272391E-003  8.5514427E-003       1.8240469       1.8840712      -3.1858825
       17.800000 -2.6214146E-003  9.9427998E-003       1.9194865       1.9897417      -3.5308699
       18.690000 -2.5248430E-003     0.011405016       2.0148407       2.0964715      -3.8937243
       19.580000 -2.4396829E-003     0.012937988       2.1101055       2.2043290      -4.2744736
       20.470000 -2.3681835E-003     0.014541600       2.2052772       2.3133851      -4.6731480
       21.360000 -2.3126824E-003     0.016215723       2.3003517       2.4237133      -5.0897790
       22.250000 -2.2756033E-003     0.017960214       2.3953253       2.5353904      -5.5244005
       23.140000 -2.2594536E-003     0.019774915       2.4901942       2.6484960      -5.9770482
       24.030000 -2.2668220E-003     0.021659648       2.5849546       2.7631135      -6.4477599
       24.920000 -2.3003760E-003     0.023614221       2.6796029       2.8793298      -6.9365755
       25.810000 -2.3628593E-003     0.025638421       2.7741355       2.9972359      -7.4435374
       26.700000 -2.4570888E-003     0.027732013       2.8685488       3.1169271      -7.9686901
       27.590000 -2.5859517E-003     0.029894741       2.9628393       3.2385033      -8.5120807
       28.480000 -2.7524025E-003     0.032126326       3.0570035       3.3620695      -9.0737585
       29.370000 -2.9594606E-003     0.034426462       3.1510380       3.4877362      -9.6537758
       30.260000 -3.2102057E-003     0.036794816       3.2449395       3.6156196      -10.252187
       31.150000 -3.5077756E-003     0.039231029       3.3387048       3.7458423      -10.869051
       32.040000 -3.8553622E-003     0.041734708       3.4323305       3.8785336      -11.504427
       32.930000 -4.2562076E-003     0.044305431       3.5258137       4.0138304      -12.158380
       33.820000 -4.7136015E-003     0.046942739       3.6191510       4.1518774      -12.830975
       34.710000 -5.2308756E-003     0.049646139       3.7123396       4.2928280      -13.522284
       35.600000 -5.8114011E-003     0.052415098       3.8053765       4.4368451      -14.232379
       36.490000 -6.4585836E-003     0.055249045       3.8982587       4.5841016      -14.961337
       37.380000 -7.1758594E-003     0.058147362       3.9909835       4.7347817      -15.709240
       38.270000 -7.9666905E-003     0.061109391       4.0835481       4.8890815      -16.476171
       39.160000 -8.8345599E-003     0.064134424       4.1759497       5.0472102      -17.262220
       40.050000 -9.7829676E-003     0.067221702       4.2681857       5.2093914      -18.067478
       40.940000    -0.010815425     0.070370416       4.3602536       5.3758642      -18.892043
       41.830000    -0.011935449     0.073579701       4.4521509       5.5468850      -19.736016
       42.720000    -0.013146558     0.076848632       4.5438750       5.7227286      -20.599502
       43.610000    -0.014452265     0.080176226       4.6354237       5.9036906      -21.482612
       44.500000    -0.015856076     0.083561432       4.7267945       6.0900891      -22.385461
       45.390000    -0.017361474     0.087003136       4.8179853       6.2822668      -23.308171
       46.280000    -0.018971926     0.090500149       4.9089938       6.4805941      -24.250867
       47.170000    -0.020690866     0.094051211       4.9998180       6.6854713      -25.213680
       48.060000    -0.022521692     0.097654982       5.0904556       6.8973324      -26.196748
       48.950000    -0.024467762      0.10131004       5.1809047       7.1166482      -27.200213
       49.840000    -0.026532379      0.10501489       5.2711634       7.3439310      -28.224225
       50.730000    -0.028718792      0.10876791       5.3612297       7.5797388      -29.268939
       51.620000    -0.031030183      0.11256744       5.4511017       7.8246808      -30.334517
       52.510000    -0.033469659      0.11641167       5.5407775       8.0794235      -31.421128
       53.400000    -0.036040245      0.12029872       5.6302556       8.3446980      -32.528947
       54.290000    -0.038744874      0.12422658       5.7195340       8.6213072      -33.658159
       55.180000    -0.041586377      0.12819314       5.8086110       8.9101361      -34.808953
       56.070000    -0.044567475      0.13219616       5.8974851       9.2121616      -35.981528
       56.960000    -0.047690767      0.13623329       5.9861545       9.5284655      -37.176090
       57.850000    -0.050958718      0.14030205       6.0746177       9.8602488      -38.392856
       58.740000    -0.054373652      0.14439979       6.1628730       10.208849      -39.632047
       59.630000    -0.057937735      0.14852376       6.2509189       10.575759      -40.893898
       60.520000    -0.061652969      0.15267102       6.3387537       10.962652      -42.178649
       61.410000    -0.065521170      0.15683852       6.4263759       11.371410      -43.486552
       62.300000    -0.069543964      0.16102299       6.5137840       11.804154      -44.817869
       63.190000    -0.073722766      0.16522102       6.6009762       12.263289      -46.172871
       64.080000    -0.078058768      0.16942901       6.6879511       12.751546      -47.551841
       64.970000    -0.082552924      0.17364318       6.7747070       13.272047      -48.955072
       65.860000    -0.087205930      0.17785952       6.8612421       13.828373      -50.382868
       66.750000    -0.092018211      0.18207383       6.9475549       14.424652      -51.835546
       67.640000    -0.096989902      0.18628169       7.0336435       15.065669      -53.313435
       68.530000     -0.10212083      0.19047844       7.1195060       15.757002      -54.816875
       69.420000     -0.10741049      0.19465919       7.2051407       16.505193      -56.346220
       70.310000     -0.11285802      0.19881877       7.2905454       17.317966      -57.901838
       71.200000     -0.11846221      0.20295175       7.3757181       18.204507      -59.484109
       72.090000     -0.12422144      0.20705244       7.4606565       19.175827      -61.093431
       72.980000     -0.13013367      0.21111481       7.5453585       20.245241      -62.730212
       73.870000     -0.13619643      0.21513255       7.6298214       21.428999      -64.394878
       74.760000     -0.14240679      0.21909901       7.7140426       22.747149      -66.087871
       75.650000     -0.14876131      0.22300719       7.7980194       24.224710      -67.809648
       76.540000     -0.15525604      0.22684973       7.8817487       25.893317      -69.560683
       77.430000     -0.16188650      0.23061889       7.9652274       27.793564      -71.341468
       78.320000     -0.16864762      0.23430651       8.0484521       29.978419      -73.152513
       79.210000     -0.17553372      0.23790403       8.1314189       32.518321      -74.994346
       80.100000     -0.18253850      0.24140242       8.2141241       35.509040      -76.867513
       80.990000     -0.18965499      0.24479219       8.2965633       39.084186      -78.772582
       81.880000     -0.19687554      0.24806335       8.3787321       43.435940      -80.710140
       82.770000     -0.20419174      0.25120538       8.4606254       48.851118      -82.680795
       83.660000     -0.21159446      0.25420722       8.5422381       55.777578      -84.685176
       84.550000     -0.21907377      0.25705722       8.6235644       64.955725      -86.723935
       85.440000     -0.22661890      0.25974313       8.7045983       77.704000      -88.797747
       86.330000     -0.23421827      0.26225204       8.7853332       96.619758      -90.907312
       87.220000     -0.24185940      0.26457035       8.8657621       127.62646      -93.053351
       88.110000     -0.24952891      0.26668378       8.9458774       187.80501      -95.236614
       89.000000     -0.25721248      0.26857727       9.0256710       355.04420      -97.457874

Table series: Data for wavelength : 0.656273 µm.
   Y Angle (deg)       Tan Shift       Sag Shift     Real Height     Ref. Height      Distortion
  --------------  --------------  --------------  --------------  --------------  --------------
      0.00000000     0.030818752     0.030818752      0.00000000      0.00000000      0.00000000
      0.89000000     0.030814537     0.030851812     0.096511070     0.096519578 -8.8145192E-003
       1.7800000     0.030807097     0.030950990      0.19301767      0.19308575    -0.035258144
       2.6700000     0.030796254     0.031116283      0.28951535      0.28974521    -0.079332770
       3.5600000     0.030781717     0.031347686      0.38599963      0.38654482     -0.14104128
       4.4500000     0.030763077     0.031645193      0.48246607      0.48353172     -0.22038771
       5.3400000     0.030739807     0.032008792      0.57891022      0.58075340     -0.31737728
       6.2300000     0.030711265     0.032438472      0.67532766      0.67825784     -0.43201640
       7.1200000     0.030676693     0.032934218      0.77171396      0.77609355     -0.56431266
       8.0100000     0.030635219     0.033496011      0.86806471      0.87430969     -0.71427489
       8.9000000     0.030585855     0.034123829      0.96437554      0.97295617     -0.88191314
       9.7900000     0.030527501     0.034817646       1.0606421       1.0720838      -1.0672388
       10.680000     0.030458943     0.035577432       1.1568600       1.1717442      -1.2702643
       11.570000     0.030378857     0.036403153       1.2530249       1.2719903      -1.4910039
       12.460000     0.030285808     0.037294766       1.3491326       1.3728761      -1.7294726
       13.350000     0.030178250     0.038252225       1.4451788       1.4744569      -1.9856873
       14.240000     0.030054532     0.039275478       1.5411592       1.5767894      -2.2596660
       15.130000     0.029912894     0.040364462       1.6370697       1.6799320      -2.5514283
       16.020000     0.029751472     0.041519109       1.7329061       1.7839447      -2.8609954
       16.910000     0.029568298     0.042739341       1.8286642       1.8888894      -3.1883900
       17.800000     0.029361303     0.044025069       1.9243400       1.9948301      -3.5336363
       18.690000     0.029128315     0.045376196       2.0199294       2.1018328      -3.8967604
       19.580000     0.028867068     0.046792610       2.1154285       2.2099662      -4.2777899
       20.470000     0.028575197     0.048274187       2.2108331       2.3193011      -4.6767544
       21.360000     0.028250243     0.049820792       2.3061395       2.4299115      -5.0936853
       22.250000     0.027889655     0.051432273       2.4013437       2.5418742      -5.5286158
       23.140000     0.027490794     0.053108460       2.4964420       2.6552691      -5.9815812
       24.030000     0.027050930     0.054849169       2.5914305       2.7701797      -6.4526190
       24.920000     0.026567252     0.056654196       2.6863056       2.8866932      -6.9417686
       25.810000     0.026036864     0.058523316       2.7810636       3.0049008      -7.4490717
       26.700000     0.025456792     0.060456285       2.8757008       3.1248980      -7.9745725
       27.590000     0.024823983     0.062452833       2.9702137       3.2467852      -8.5183174
       28.480000     0.024135311     0.064512669       3.0645988       3.3706674      -9.0803555
       29.370000     0.023387580     0.066635474       3.1588528       3.4966555      -9.6607382
       30.260000     0.022577526     0.068820901       3.2529721       3.6248659      -10.259520
       31.150000     0.021701817     0.071068574       3.3469535       3.7554216      -10.876758
       32.040000     0.020757066     0.073378088       3.4407938       3.8884523      -11.512511
       32.930000     0.019739821     0.075749002       3.5344897       4.0240950      -12.166844
       33.820000     0.018646581     0.078180842       3.6280381       4.1624950      -12.839822
       34.710000     0.017473793     0.080673095       3.7214360       4.3038061      -13.531515
       35.600000     0.016217857     0.083225211       3.8146803       4.4481915      -14.241995
       36.490000     0.014875129     0.085836598       3.9077682       4.5958246      -14.971339
       37.380000     0.013441929     0.088506621       4.0006967       4.7468901      -15.719626
       38.270000     0.011914543     0.091234597       4.0934631       4.9015845      -16.486942
       39.160000     0.010289223     0.094019798       4.1860646       5.0601175      -17.273372
       40.050000  8.5622018E-003     0.096861442       4.2784986       5.2227135      -18.079009
       40.940000  6.7296870E-003     0.099758696       4.3707624       5.3896120      -18.903950
       41.830000  4.7878728E-003      0.10271067       4.4628536       5.5610701      -19.748294
       42.720000  2.7329428E-003      0.10571641       4.5547696       5.7373634      -20.612147
       43.610000  5.6107577E-004      0.10877491       4.6465081       5.9187882      -21.495618
       44.500000 -1.7315493E-003      0.11188510       4.7380667       6.1056633      -22.398822
       45.390000 -4.1487471E-003      0.11504581       4.8294430       6.2983325      -23.321879
       46.280000 -6.6943201E-003      0.11825585       4.9206350       6.4971670      -24.264914
       47.170000 -9.3720521E-003      0.12151392       5.0116405       6.7025682      -25.228057
       48.060000    -0.012185702      0.12481865       5.1024572       6.9149710      -26.211445
       48.950000    -0.015138998      0.12816857       5.1930833       7.1348478      -27.215219
       49.840000    -0.018235629      0.13156217       5.2835166       7.3627118      -28.239529
       50.730000    -0.021479237      0.13499779       5.3737554       7.5991226      -29.284528
       51.620000    -0.024873413      0.13847372       5.4637976       7.8446909      -30.350378
       52.510000    -0.028421683      0.14198813       5.5536415       8.1000852      -31.437246
       53.400000    -0.032127506      0.14553909       5.6432852       8.3660380      -32.545308
       54.290000    -0.035994263      0.14912456       5.7327270       8.6433546      -33.674745
       55.180000    -0.040025244      0.15274239       5.8219652       8.9329221      -34.825748
       56.070000    -0.044223646      0.15639030       5.9109981       9.2357200      -35.998514
       56.960000    -0.048592557      0.16006590       5.9998240       9.5528328      -37.193248
       57.850000    -0.053134948      0.16376664       6.0884414       9.8854646      -38.410164
       58.740000    -0.057853661      0.16748987       6.1768486       10.234956      -39.649486
       59.630000    -0.062751400      0.17123277       6.2650440       10.602804      -40.911444
       60.520000    -0.067830716      0.17499237       6.3530260       10.990687      -42.196281
       61.410000    -0.073093996      0.17876554       6.4407932       11.400490      -43.504245
       62.300000    -0.078543450      0.18254901       6.5283438       11.834341      -44.835597
       63.190000    -0.084181097      0.18633931       6.6156763       12.294650      -46.190608
       64.080000    -0.090008751      0.19013278       6.7027891       12.784156      -47.569560
       64.970000    -0.096028001      0.19392560       6.7896806       13.305988      -48.972744
       65.860000     -0.10224021      0.19771372       6.8763491       13.863737      -50.400464
       66.750000     -0.10864646      0.20149289       6.9627928       14.461541      -51.853035
       67.640000     -0.11524761      0.20525864       7.0490101       15.104197      -53.330785
       68.530000     -0.12204418      0.20900627       7.1349991       15.797298      -54.834053
       69.420000     -0.12903640      0.21273083       7.2207578       16.547402      -56.363193
       70.310000     -0.13622419      0.21642712       7.3062844       17.362253      -57.918570
       71.200000     -0.14360709      0.22008967       7.3915768       18.251062      -59.500565
       72.090000     -0.15118428      0.22371273       7.4766326       19.224866      -61.109572
       72.980000     -0.15895455      0.22729024       7.5614497       20.297015      -62.746000
       73.870000     -0.16691625      0.23081586       7.6460256       21.483800      -64.410274
       74.760000     -0.17506733      0.23428288       7.7303577       22.805321      -66.102833
       75.650000     -0.18340521      0.23768429       7.8144432       24.286660      -67.824134
       76.540000     -0.19192685      0.24101269       7.8982791       25.959534      -69.574650
       77.430000     -0.20062869      0.24426030       7.9818622       27.864641      -71.354872
       78.320000     -0.20950659      0.24741896       8.0651892       30.055083      -73.165307
       79.210000     -0.21855583      0.25048007       8.1482565       32.601481      -75.006483
       80.100000     -0.22777110      0.25343458       8.2310600       35.599848      -76.878946
       80.990000     -0.23714641      0.25627301       8.3135956       39.184136      -78.783262
       81.880000     -0.24667511      0.25898535       8.3958588       43.547020      -80.720015
       82.770000     -0.25634984      0.26156110       8.4778447       48.976045      -82.689814
       83.660000     -0.26616248      0.26398919       8.5595480       55.920218      -84.693286
       84.550000     -0.27610415      0.26625801       8.6409632       65.121838      -86.731082
       85.440000     -0.28616516      0.26835531       8.7220843       77.902713      -88.803876
       86.330000     -0.29633496      0.27026824       8.8029046       96.866845      -90.912366
       87.220000     -0.30660215      0.27198324       8.8834173       127.95285      -93.057273
       88.110000     -0.31695440      0.27348608       8.9636148       188.28528      -95.239344
       89.000000     -0.32737848      0.27476178       9.0434890       355.95216      -97.459353
