Results for:	
File:	C:\Users\User\OneDrive - Massachusetts Institute of Technology\Documents\MIT\Grad School\Classes\2.156\Lens Project\Prime Lenses\US04273415-1.ZMX
Title:	
Date:	11/7/2025 5:45:55 PM

0 message(s) in output.
3 series table(s) in output.

Table series: Data for wavelength : 0.486133 µm.
        Y Height       Tan Shift       Sag Shift     Real Height     Ref. Height      Distortion
  --------------  --------------  --------------  --------------  --------------  --------------
      0.00000000     0.056018697     0.056018697      0.00000000      0.00000000      0.00000000
      0.67760000     0.056016958     0.056005892      0.13559890      0.13559890 -4.5235329E-006
       1.3552000     0.056012465     0.055967482      0.27119777      0.27119781 -1.4684693E-005
       2.0328000     0.056005222     0.055903485      0.40679658      0.40679671 -3.1616145E-005
       2.7104000     0.055995239     0.055813929      0.54239531      0.54239561 -5.5300854E-005
       3.3880000     0.055982526     0.055698854      0.67799394      0.67799452 -8.5760644E-005
       4.0656000     0.055967100     0.055558311      0.81359242      0.81359342 -1.2298202E-004
       4.7432000     0.055948979     0.055392364      0.94919074      0.94919233 -1.6697096E-004
       5.4208000     0.055928185     0.055201087       1.0847889       1.0847912 -2.1773208E-004
       6.0984000     0.055904743     0.054984566       1.2203868       1.2203901 -2.7525800E-004
       6.7760000     0.055878682     0.054742898       1.3559844       1.3559890 -3.3955466E-004
       7.4536000     0.055850035     0.054476191       1.4915818       1.4915879 -4.1061835E-004
       8.1312000     0.055818836     0.054184565       1.6271789       1.6271868 -4.8845095E-004
       8.8088000     0.055785127     0.053868153       1.7627756       1.7627857 -5.7305287E-004
       9.4864000     0.055748948     0.053527096       1.8983720       1.8983847 -6.6442631E-004
       10.164000     0.055710347     0.053161549       2.0339680       2.0339836 -7.6257005E-004
       10.841600     0.055669373     0.052771677       2.1695636       2.1695825 -8.6748237E-004
       11.519200     0.055626080     0.052357659       2.3051588       2.3051814 -9.7916538E-004
       12.196800     0.055580525     0.051919681       2.4407535       2.4407803 -1.0976195E-003
       12.874400     0.055532768     0.051457944       2.5763477       2.5763792 -1.2228450E-003
       13.552000     0.055482875     0.050972658       2.7119413       2.7119781 -1.3548424E-003
       14.229600     0.055430913     0.050464047       2.8475344       2.8475770 -1.4936121E-003
       14.907200     0.055376954     0.049932343       2.9831270       2.9831759 -1.6391546E-003
       15.584800     0.055321074     0.049377792       3.1187189       3.1187748 -1.7914702E-003
       16.262400     0.055263353     0.048800650       3.2543102       3.2543737 -1.9505594E-003
       16.940000     0.055203875     0.048201186       3.3899008       3.3899726 -2.1164226E-003
       17.617600     0.055142727     0.047579676       3.5254908       3.5255715 -2.2890604E-003
       18.295200     0.055080001     0.046936413       3.6610800       3.6611704 -2.4684731E-003
       18.972800     0.055015793     0.046271698       3.7966685       3.7967693 -2.6546613E-003
       19.650400     0.054950203     0.045585842       3.9322562       3.9323682 -2.8476254E-003
       20.328000     0.054883334     0.044879170       4.0678431       4.0679671 -3.0473658E-003
       21.005600     0.054815296     0.044152017       4.2034292       4.2035660 -3.2538829E-003
       21.683200     0.054746201     0.043404729       4.3390145       4.3391649 -3.4671773E-003
       22.360800     0.054676166     0.042637664       4.4745988       4.4747638 -3.6872493E-003
       23.038400     0.054605313     0.041851191       4.6101823       4.6103627 -3.9140994E-003
       23.716000     0.054533768     0.041045688       4.7457648       4.7459616 -4.1477280E-003
       24.393600     0.054461663     0.040221547       4.8813463       4.8815605 -4.3881353E-003
       25.071200     0.054389132     0.039379171       5.0169269       5.0171594 -4.6353219E-003
       25.748800     0.054316316     0.038518971       5.1525064       5.1527583 -4.8892880E-003
       26.426400     0.054243360     0.037641373       5.2880849       5.2883572 -5.1500339E-003
       27.104000     0.054170415     0.036746810       5.4236623       5.4239561 -5.4175599E-003
       27.781600     0.054097635     0.035835731       5.5592386       5.5595551 -5.6918663E-003
       28.459200     0.054025181     0.034908590       5.6948138       5.6951540 -5.9729533E-003
       29.136800     0.053953219     0.033965858       5.8303878       5.8307529 -6.2608210E-003
       29.814400     0.053881918     0.033008013       5.9659606       5.9663518 -6.5554697E-003
       30.492000     0.053811457     0.032035545       6.1015323       6.1019507 -6.8568993E-003
       31.169600     0.053742015     0.031048955       6.2371026       6.2375496 -7.1651100E-003
       31.847200     0.053673781     0.030048755       6.3726718       6.3731485 -7.4801018E-003
       32.524800     0.053606948     0.029035468       6.5082396       6.5087474 -7.8018745E-003
       33.202400     0.053541713     0.028009628       6.6438061       6.6443463 -8.1304282E-003
       33.880000     0.053478284     0.026971778       6.7793712       6.7799452 -8.4657626E-003
       34.557600     0.053416869     0.025922475       6.9149350       6.9155441 -8.8078775E-003
       35.235200     0.053357686     0.024862284       7.0504973       7.0511430 -9.1567727E-003
       35.912800     0.053300958     0.023791783       7.1860583       7.1867419 -9.5124477E-003
       36.590400     0.053246914     0.022711558       7.3216177       7.3223408 -9.8749022E-003
       37.268000     0.053195792     0.021622208       7.4571757       7.4579397    -0.010244136
       37.945600     0.053147832     0.020524343       7.5927322       7.5935386    -0.010620147
       38.623200     0.053103285     0.019418581       7.7282871       7.7291375    -0.011002937
       39.300800     0.053062407     0.018305553       7.8638404       7.8647364    -0.011392503
       39.978400     0.053025462     0.017185900       7.9993922       8.0003353    -0.011788846
       40.656000     0.052992719     0.016060273       8.1349423       8.1359342    -0.012191964
       41.333600     0.052964456     0.014929335       8.2704908       8.2715331    -0.012601856
       42.011200     0.052940958     0.013793757       8.4060375       8.4071320    -0.013018521
       42.688800     0.052922518     0.012654224       8.5415826       8.5427309    -0.013441958
       43.366400     0.052909436     0.011511429       8.6771260       8.6783298    -0.013872166
       44.044000     0.052902020     0.010366075       8.8126675       8.8139287    -0.014309143
       44.721600     0.052900586  9.2188771E-003       8.9482073       8.9495276    -0.014752887
       45.399200     0.052905459  8.0705605E-003       9.0837453       9.0851266    -0.015203398
       46.076800     0.052916970  6.9218603E-003       9.2192814       9.2207255    -0.015660672
       46.754400     0.052935461  5.7735221E-003       9.3548157       9.3563244    -0.016124709
       47.432000     0.052961281  4.6263018E-003       9.4903480       9.4919233    -0.016595506
       48.109600     0.052994789  3.4809656E-003       9.6258785       9.6275222    -0.017073061
       48.787200     0.053036351  2.3382902E-003       9.7614069       9.7631211    -0.017557372
       49.464800     0.053086343  1.1990622E-003       9.8969334       9.8987200    -0.018048437
       50.142400     0.053145152  6.4078653E-005       10.032458       10.034319    -0.018546252
       50.820000     0.053213172 -1.0658532E-003       10.167980       10.169918    -0.019050816
       51.497600     0.053290808 -2.1899161E-003       10.303501       10.305517    -0.019562124
       52.175200     0.053378474 -3.3072824E-003       10.439019       10.441116    -0.020080175
       52.852800     0.053476594 -4.4171146E-003       10.574535       10.576714    -0.020604966
       53.530400     0.053585602 -5.5185650E-003       10.710049       10.712313    -0.021136492
       54.208000     0.053705944 -6.6107758E-003       10.845561       10.847912    -0.021674750
       54.885600     0.053838074 -7.6928791E-003       10.981071       10.983511    -0.022219737
       55.563200     0.053982458 -8.7639973E-003       11.116578       11.119110    -0.022771449
       56.240800     0.054139573 -9.8232424E-003       11.252083       11.254709    -0.023329882
       56.918400     0.054309908    -0.010869717       11.387586       11.390308    -0.023895032
       57.596000     0.054493961    -0.011902513       11.523087       11.525907    -0.024466895
       58.273600     0.054692243    -0.012920712       11.658585       11.661506    -0.025045465
       58.951200     0.054905276    -0.013923389       11.794081       11.797105    -0.025630739
       59.628800     0.055133595    -0.014909604       11.929574       11.932704    -0.026222711
       60.306400     0.055377745    -0.015878411       12.065066       12.068302    -0.026821377
       60.984000     0.055638287    -0.016828853       12.200554       12.203901    -0.027426731
       61.661600     0.055915791    -0.017759964       12.336040       12.339500    -0.028038767
       62.339200     0.056210841    -0.018670766       12.471524       12.475099    -0.028657481
       63.016800     0.056524034    -0.019560274       12.607005       12.610698    -0.029282866
       63.694400     0.056855980    -0.020427491       12.742484       12.746297    -0.029914916
       64.372000     0.057207304    -0.021271412       12.877960       12.881896    -0.030553625
       65.049600     0.057578642    -0.022091021       13.013433       13.017495    -0.031198987
       65.727200     0.057970646    -0.022885295       13.148904       13.153094    -0.031850994
       66.404800     0.058383981    -0.023653197       13.284372       13.288693    -0.032509641
       67.082400     0.058819327    -0.024393684       13.419838       13.424291    -0.033174919
       67.760000     0.059277379    -0.025105703       13.555301       13.559890    -0.033846822

Table series: Data for wavelength : 0.587562 µm.
        Y Height       Tan Shift       Sag Shift     Real Height     Ref. Height      Distortion
  --------------  --------------  --------------  --------------  --------------  --------------
      0.00000000      0.11267652      0.11267652      0.00000000      0.00000000      0.00000000
      0.67760000      0.11267152      0.11266123      0.13560427      0.13560427 -3.1327916E-006
       1.3552000      0.11265735      0.11261537      0.27120851      0.27120855 -1.2641180E-005
       2.0328000      0.11263400      0.11253896      0.40681270      0.40681282 -2.8488630E-005
       2.7104000      0.11260149      0.11243202      0.54241682      0.54241709 -5.0664793E-005
       3.3880000      0.11255983      0.11229460      0.67802083      0.67802136 -7.9168204E-005
       4.0656000      0.11250903      0.11212675      0.81362471      0.81362564 -1.1401272E-004
       4.7432000      0.11244911      0.11192852      0.94922843      0.94922991 -1.5518645E-004
       5.4208000      0.11238009      0.11170000       1.0848320       1.0848342 -2.0269273E-004
       6.0984000      0.11230200      0.11144126       1.2204353       1.2204385 -2.5654107E-004
       6.7760000      0.11221487      0.11115241       1.3560384       1.3560427 -3.1671777E-004
       7.4536000      0.11211872      0.11083356       1.4916413       1.4916470 -3.8323366E-004
       8.1312000      0.11201359      0.11048481       1.6272438       1.6272513 -4.5608039E-004
       8.8088000      0.11189952      0.11010631       1.7628461       1.7628555 -5.3526184E-004
       9.4864000      0.11177656      0.10969820       1.8984480       1.8984598 -6.2078140E-004
       10.164000      0.11164474      0.10926062       2.0340496       2.0340641 -7.1263646E-004
       10.841600      0.11150413      0.10879375       2.1696508       2.1696684 -8.1082331E-004
       11.519200      0.11135475      0.10829776       2.3052515       2.3052726 -9.1534510E-004
       12.196800      0.11119669      0.10777284       2.4408519       2.4408769 -1.0262018E-003
       12.874400      0.11102999      0.10721918       2.5764517       2.5764812 -1.1433936E-003
       13.552000      0.11085472      0.10663700       2.7120511       2.7120855 -1.2669203E-003
       14.229600      0.11067094      0.10602652       2.8476499       2.8476897 -1.3967821E-003
       14.907200      0.11047873      0.10538796       2.9832483       2.9832940 -1.5329789E-003
       15.584800      0.11027815      0.10472159       3.1188460       3.1188983 -1.6755106E-003
       16.262400      0.11006930      0.10402764       3.2544432       3.2545025 -1.8243774E-003
       16.940000      0.10985225      0.10330639       3.3900397       3.3901068 -1.9795790E-003
       17.617600      0.10962708      0.10255811       3.5256356       3.5257111 -2.1411155E-003
       18.295200      0.10939389      0.10178309       3.6612308       3.6613154 -2.3089868E-003
       18.972800      0.10915276      0.10098164       3.7968253       3.7969196 -2.4831928E-003
       19.650400      0.10890381      0.10015406       3.9324192       3.9325239 -2.6637333E-003
       20.328000      0.10864713     0.099300677       4.0680122       4.0681282 -2.8506083E-003
       21.005600      0.10838282     0.098421822       4.2036045       4.2037324 -3.0438174E-003
       21.683200      0.10811099     0.097517841       4.3391960       4.3393367 -3.2433606E-003
       22.360800      0.10783177     0.096589089       4.4747866       4.4749410 -3.4492376E-003
       23.038400      0.10754527     0.095635934       4.6103765       4.6105453 -3.6614480E-003
       23.716000      0.10725162     0.094658753       4.7459654       4.7461495 -3.8799917E-003
       24.393600      0.10695094     0.093657935       4.8815534       4.8817538 -4.1048682E-003
       25.071200      0.10664336     0.092633879       5.0171405       5.0173581 -4.3360772E-003
       25.748800      0.10632902     0.091586998       5.1527267       5.1529624 -4.5736182E-003
       26.426400      0.10600807     0.090517712       5.2883119       5.2885666 -4.8174907E-003
       27.104000      0.10568065     0.089426455       5.4238960       5.4241709 -5.0676943E-003
       27.781600      0.10534692     0.088313671       5.5594792       5.5597752 -5.3242283E-003
       28.459200      0.10500702     0.087179814       5.6950612       5.6953794 -5.5870921E-003
       29.136800      0.10466113     0.086025350       5.8306422       5.8309837 -5.8562849E-003
       29.814400      0.10430941     0.084850755       5.9662221       5.9665880 -6.1318062E-003
       30.492000      0.10395203     0.083656518       6.1018009       6.1021923 -6.4136549E-003
       31.169600      0.10358917     0.082443136       6.2373785       6.2377965 -6.7018303E-003
       31.847200      0.10322101     0.081211118       6.3729549       6.3734008 -6.9963313E-003
       32.524800      0.10284775     0.079960984       6.5085301       6.5090051 -7.2971570E-003
       33.202400      0.10246957     0.078693266       6.6441041       6.6446094 -7.6043062E-003
       33.880000      0.10208667     0.077408504       6.7796768       6.7802136 -7.9177778E-003
       34.557600      0.10169928     0.076107250       6.9152482       6.9158179 -8.2375705E-003
       35.235200      0.10130758     0.074790067       7.0508183       7.0514222 -8.5636829E-003
       35.912800      0.10091181     0.073457530       7.1863871       7.1870264 -8.8961136E-003
       36.590400      0.10051218     0.072110221       7.3219545       7.3226307 -9.2348611E-003
       37.268000      0.10010894     0.070748736       7.4575205       7.4582350 -9.5799237E-003
       37.945600     0.099702306     0.069373680       7.5930851       7.5938393 -9.9312997E-003
       38.623200     0.099292533     0.067985669       7.7286483       7.7294435    -0.010288987
       39.300800     0.098879868     0.066585329       7.8642099       7.8650478    -0.010652985
       39.978400     0.098464569     0.065173297       7.9997701       8.0006521    -0.011023289
       40.656000     0.098046901     0.063750221       8.1353288       8.1362564    -0.011399900
       41.333600     0.097627133     0.062316759       8.2708860       8.2718606    -0.011782813
       42.011200     0.097205544     0.060873579       8.4064415       8.4074649    -0.012172027
       42.688800     0.096782420     0.059421359       8.5419955       8.5430692    -0.012567540
       43.366400     0.096358053     0.057960790       8.6775479       8.6786734    -0.012969348
       44.044000     0.095932745     0.056492569       8.8130986       8.8142777    -0.013377449
       44.721600     0.095506804     0.055017408       8.9486476       8.9498820    -0.013791840
       45.399200     0.095080545     0.053536025       9.0841950       9.0854863    -0.014212518
       46.076800     0.094654294     0.052049152       9.2197406       9.2210905    -0.014639479
       46.754400     0.094228382     0.050557529       9.3552845       9.3566948    -0.015072722
       47.432000     0.093803151     0.049061907       9.4908266       9.4922991    -0.015512241
       48.109600     0.093378949     0.047563046       9.6263669       9.6279034    -0.015958033
       48.787200     0.092956135     0.046061718       9.7619054       9.7635076    -0.016410095
       49.464800     0.092535075     0.044558703       9.8974421       9.8991119    -0.016868422
       50.142400     0.092116145     0.043054794       10.032977       10.034716    -0.017333011
       50.820000     0.091699730     0.041550792       10.168510       10.170320    -0.017803858
       51.497600     0.091286223     0.040047508       10.304041       10.305925    -0.018280957
       52.175200     0.090876029     0.038545762       10.439570       10.441529    -0.018764304
       52.852800     0.090469560     0.037046388       10.575097       10.577133    -0.019253895
       53.530400     0.090067239     0.035550225       10.710622       10.712738    -0.019749724
       54.208000     0.089669500     0.034058126       10.846145       10.848342    -0.020251787
       54.885600     0.089276785     0.032570951       10.981666       10.983946    -0.020760077
       55.563200     0.088889549     0.031089571       11.117185       11.119550    -0.021274591
       56.240800     0.088508255     0.029614867       11.252702       11.255155    -0.021795321
       56.918400     0.088133377     0.028147730       11.388216       11.390759    -0.022322262
       57.596000     0.087765403     0.026689061       11.523729       11.526363    -0.022855408
       58.273600     0.087404827     0.025239768       11.659239       11.661967    -0.023394752
       58.951200     0.087052160     0.023800772       11.794747       11.797572    -0.023940288
       59.628800     0.086707919     0.022373003       11.930253       11.933176    -0.024492010
       60.306400     0.086372637     0.020957399       12.065757       12.068780    -0.025049910
       60.984000     0.086046856     0.019554910       12.201259       12.204385    -0.025613982
       61.661600     0.085731133     0.018166495       12.336758       12.339989    -0.026184217
       62.339200     0.085426034     0.016793120       12.472255       12.475593    -0.026760609
       63.016800     0.085132140     0.015435763       12.607749       12.611197    -0.027343149
       63.694400     0.084850044     0.014095413       12.743241       12.746802    -0.027931829
       64.372000     0.084580352     0.012773064       12.878731       12.882406    -0.028526642
       65.049600     0.084323683     0.011469724       13.014218       13.018010    -0.029127579
       65.727200     0.084080670     0.010186408       13.149703       13.153614    -0.029734631
       66.404800     0.083851958  8.9241409E-003       13.285186       13.289219    -0.030347789
       67.082400     0.083638208  7.6839567E-003       13.420666       13.424823    -0.030967044
       67.760000     0.083440095  6.4668993E-003       13.556143       13.560427    -0.031592386

Table series: Data for wavelength : 0.656273 µm.
        Y Height       Tan Shift       Sag Shift     Real Height     Ref. Height      Distortion
  --------------  --------------  --------------  --------------  --------------  --------------
      0.00000000      0.17876694      0.17876694      0.00000000      0.00000000      0.00000000
      0.67760000      0.17876076      0.17875069      0.13560943      0.13560942  4.0187578E-006
       1.3552000      0.17874309      0.17870194      0.27121883      0.27121884 -5.1121549E-006
       2.0328000      0.17871394      0.17862072      0.40682818      0.40682826 -2.0425442E-005
       2.7104000      0.17867331      0.17850705      0.54243746      0.54243768 -4.1876247E-005
       3.3880000      0.17862122      0.17836097      0.67804663      0.67804711 -6.9455841E-005
       4.0656000      0.17855767      0.17818253      0.81365569      0.81365653 -1.0317123E-004
       4.7432000      0.17848270      0.17797179      0.94926459      0.94926595 -1.4300034E-004
       5.4208000      0.17839632      0.17772884       1.0848733       1.0848754 -1.8896725E-004
       6.0984000      0.17829855      0.17745374       1.2204818       1.2204848 -2.4108110E-004
       6.7760000      0.17818943      0.17714661       1.3560902       1.3560942 -2.9931636E-004
       7.4536000      0.17806898      0.17680755       1.4916982       1.4917036 -3.6368926E-004
       8.1312000      0.17793724      0.17643667       1.6273060       1.6273131 -4.3418555E-004
       8.8088000      0.17779425      0.17603411       1.7629135       1.7629225 -5.1081930E-004
       9.4864000      0.17764005      0.17560001       1.8985206       1.8985319 -5.9357703E-004
       10.164000      0.17747469      0.17513453       2.0341274       2.0341413 -6.8246956E-004
       10.841600      0.17729821      0.17463782       2.1697339       2.1697507 -7.7749319E-004
       11.519200      0.17711066      0.17411007       2.3053399       2.3053602 -8.7864215E-004
       12.196800      0.17691212      0.17355146       2.4409455       2.4409696 -9.8592088E-004
       12.874400      0.17670262      0.17296220       2.5765507       2.5765790 -1.0993293E-003
       13.552000      0.17648224      0.17234248       2.7121554       2.7121884 -1.2188671E-003
       14.229600      0.17625104      0.17169253       2.8477596       2.8477978 -1.3445344E-003
       14.907200      0.17600909      0.17101259       2.9833632       2.9834073 -1.4763308E-003
       15.584800      0.17575647      0.17030290       3.1189663       3.1190167 -1.6142563E-003
       16.262400      0.17549326      0.16956371       3.2545689       3.2546261 -1.7583106E-003
       16.940000      0.17521953      0.16879529       3.3901708       3.3902355 -1.9084934E-003
       17.617600      0.17493537      0.16799791       3.5257721       3.5258449 -2.0648046E-003
       18.295200      0.17464088      0.16717187       3.6613728       3.6614544 -2.2272438E-003
       18.972800      0.17433614      0.16631746       3.7969728       3.7970638 -2.3958107E-003
       19.650400      0.17402126      0.16543500       3.9325721       3.9326732 -2.5705050E-003
       20.328000      0.17369633      0.16452481       4.0681707       4.0682826 -2.7513263E-003
       21.005600      0.17336146      0.16358721       4.2037685       4.2038921 -2.9382742E-003
       21.683200      0.17301677      0.16262256       4.3393656       4.3395015 -3.1313482E-003
       22.360800      0.17266236      0.16163122       4.4749618       4.4751109 -3.3305479E-003
       23.038400      0.17229836      0.16061353       4.6105573       4.6107203 -3.5358727E-003
       23.716000      0.17192488      0.15956989       4.7461519       4.7463297 -3.7473220E-003
       24.393600      0.17154206      0.15850069       4.8817456       4.8819392 -3.9648953E-003
       25.071200      0.17115003      0.15740631       5.0173384       5.0175486 -4.1885918E-003
       25.748800      0.17074892      0.15628718       5.1529303       5.1531580 -4.4184108E-003
       26.426400      0.17033889      0.15514371       5.2885213       5.2887674 -4.6543515E-003
       27.104000      0.16992006      0.15397634       5.4241112       5.4243768 -4.8964132E-003
       27.781600      0.16949260      0.15278551       5.5597002       5.5599863 -5.1445948E-003
       28.459200      0.16905667      0.15157167       5.6952882       5.6955957 -5.3988955E-003
       29.136800      0.16861241      0.15033529       5.8308751       5.8312051 -5.6593143E-003
       29.814400      0.16816001      0.14907685       5.9664609       5.9668145 -5.9258499E-003
       30.492000      0.16769962      0.14779682       6.1020457       6.1024239 -6.1985013E-003
       31.169600      0.16723144      0.14649572       6.2376293       6.2380334 -6.4772672E-003
       31.847200      0.16675563      0.14517405       6.3732118       6.3736428 -6.7621463E-003
       32.524800      0.16627240      0.14383232       6.5087931       6.5092522 -7.0531372E-003
       33.202400      0.16578193      0.14247107       6.6443732       6.6448616 -7.3502384E-003
       33.880000      0.16528442      0.14109084       6.7799521       6.7804711 -7.6534484E-003
       34.557600      0.16478008      0.13969218       6.9155298       6.9160805 -7.9627655E-003
       35.235200      0.16426911      0.13827565       7.0511061       7.0516899 -8.2781878E-003
       35.912800      0.16375175      0.13684182       7.1866812       7.1872993 -8.5997137E-003
       36.590400      0.16322820      0.13539129       7.3222550       7.3229087 -8.9273411E-003
       37.268000      0.16269870      0.13392463       7.4578274       7.4585182 -9.2610679E-003
       37.945600      0.16216348      0.13244246       7.5933985       7.5941276 -9.6008921E-003
       38.623200      0.16162280      0.13094539       7.7289681       7.7297370 -9.9468113E-003
       39.300800      0.16107689      0.12943405       7.8645364       7.8653464    -0.010298823
       39.978400      0.16052601      0.12790907       8.0001032       8.0009558    -0.010656925
       40.656000      0.15997043      0.12637110       8.1356685       8.1365653    -0.011021115
       41.333600      0.15941041      0.12482080       8.2712324       8.2721747    -0.011391389
       42.011200      0.15884623      0.12325883       8.4067947       8.4077841    -0.011767745
       42.688800      0.15827818      0.12168587       8.5423555       8.5433935    -0.012150181
       43.366400      0.15770655      0.12010262       8.6779147       8.6790029    -0.012538692
       44.044000      0.15713163      0.11850975       8.8134723       8.8146124    -0.012933275
       44.721600      0.15655374      0.11690800       8.9490284       8.9502218    -0.013333928
       45.399200      0.15597319      0.11529807       9.0845828       9.0858312    -0.013740646
       46.076800      0.15539029      0.11368069       9.2201355       9.2214406    -0.014153426
       46.754400      0.15480538      0.11205661       9.3556865       9.3570500    -0.014572264
       47.432000      0.15421881      0.11042657       9.4912358       9.4926595    -0.014997155
       48.109600      0.15363091      0.10879134       9.6267834       9.6282689    -0.015428097
       48.787200      0.15304204      0.10715167       9.7623293       9.7638783    -0.015865084
       49.464800      0.15245257      0.10550836       9.8978733       9.8994877    -0.016308112
       50.142400      0.15186287      0.10386219       10.033416       10.035097    -0.016757176
       50.820000      0.15127332      0.10221397       10.168956       10.170707    -0.017212272
       51.497600      0.15068432      0.10056449       10.304495       10.306316    -0.017673394
       52.175200      0.15009626     0.098914584       10.440031       10.441925    -0.018140537
       52.852800      0.14950956     0.097265080       10.575566       10.577535    -0.018613696
       53.530400      0.14892464     0.095616817       10.711099       10.713144    -0.019092865
       54.208000      0.14834192     0.093970644       10.846630       10.848754    -0.019578038
       54.885600      0.14776184     0.092327421       10.982159       10.984363    -0.020069211
       55.563200      0.14718487     0.090688016       11.117686       11.119973    -0.020566375
       56.240800      0.14661145     0.089053310       11.253210       11.255582    -0.021069525
       56.918400      0.14604206     0.087424189       11.388733       11.391191    -0.021578655
       57.596000      0.14547718     0.085801554       11.524254       11.526801    -0.022093758
       58.273600      0.14491731     0.084186311       11.659773       11.662410    -0.022614826
       58.951200      0.14436294     0.082579378       11.795289       11.798020    -0.023141853
       59.628800      0.14381460     0.080981684       11.930804       11.933629    -0.023674830
       60.306400      0.14327281     0.079394165       12.066316       12.069238    -0.024213752
       60.984000      0.14273812     0.077817767       12.201826       12.204848    -0.024758609
       61.661600      0.14221106     0.076253447       12.337334       12.340457    -0.025309393
       62.339200      0.14169221     0.074702170       12.472840       12.476067    -0.025866097
       63.016800      0.14118215     0.073164912       12.608343       12.611676    -0.026428711
       63.694400      0.14068145     0.071642657       12.743844       12.747286    -0.026997227
       64.372000      0.14019073     0.070136398       12.879343       12.882895    -0.027571636
       65.049600      0.13971059     0.068647141       13.014839       13.018504    -0.028151929
       65.727200      0.13924166     0.067175896       13.150334       13.154114    -0.028738096
       66.404800      0.13878459     0.065723688       13.285825       13.289723    -0.029330128
       67.082400      0.13834002     0.064291546       13.421315       13.425333    -0.029928014
       67.760000      0.13790863     0.062880512       13.556802       13.560942    -0.030531744
