Results for:	
File:	C:\Users\User\OneDrive - Massachusetts Institute of Technology\Documents\MIT\Grad School\Classes\2.156\Lens Project\Prime Lenses\US05434713-1.zmx
Title:	
Date:	11/7/2025 5:46:55 PM

0 message(s) in output.
3 series table(s) in output.

Table series: Data for wavelength : 0.486133 µm.
   Y Angle (deg)       Tan Shift       Sag Shift     Real Height     Ref. Height      Distortion
  --------------  --------------  --------------  --------------  --------------  --------------
      0.00000000 -3.2388790E-003 -3.2388790E-003      0.00000000      0.00000000      0.00000000
      0.89000000 -3.2925759E-003 -3.2645411E-003      0.24288376      0.24290528 -8.8574817E-003
       1.7800000 -3.4524118E-003 -3.3414650E-003      0.48575566      0.48592783    -0.035430966
       2.6700000 -3.7181674E-003 -3.4694633E-003      0.72860380      0.72918513    -0.079723625
       3.5600000 -4.0894720E-003 -3.6482248E-003      0.97141630      0.97279515     -0.14174074
       4.4500000 -4.5658041E-003 -3.8773148E-003       1.2141812       1.2168765     -0.22148970
       5.3400000 -5.1464927E-003 -4.1561770E-003       1.4568867       1.4615487     -0.31898002
       6.2300000 -5.8307191E-003 -4.4841352E-003       1.6995207       1.7069326     -0.43422332
       7.1200000 -6.6175184E-003 -4.8603955E-003       1.9420712       1.9531501     -0.56723336
       8.0100000 -7.5057819E-003 -5.2840488E-003       2.1845261       2.2003250     -0.71802602
       8.9000000 -8.4942596E-003 -5.7540741E-003       2.4268733       2.4485829     -0.88661931
       9.7900000 -9.5815633E-003 -6.2693418E-003       2.6691007       2.6980517      -1.0730334
       10.680000    -0.010766169 -6.8286175E-003       2.9111959       2.9488614      -1.2772905
       11.570000    -0.012046422 -7.4305665E-003       3.1531466       3.2011450      -1.4994151
       12.460000    -0.013420539 -8.0737581E-003       3.3949404       3.4550385      -1.7394339
       13.350000    -0.014886612 -8.7566712E-003       3.6365648       3.7106810      -1.9973755
       14.240000    -0.016442613 -9.4776994E-003       3.8780070       3.9682153      -2.2732709
       15.130000    -0.018086399    -0.010235157       4.1192545       4.2277883      -2.5671533
       16.020000    -0.019815718    -0.011027286       4.3602943       4.4895511      -2.8790579
       16.910000    -0.021628208    -0.011852263       4.6011134       4.7536594      -3.2090223
       17.800000    -0.023521410    -0.012708204       4.8416988       5.0202743      -3.5570861
       18.690000    -0.025492766    -0.013593176       5.0820370       5.2895620      -3.9232914
       19.580000    -0.027539630    -0.014505202       5.3221148       5.5616949      -4.3076824
       20.470000    -0.029659268    -0.015442272       5.5619184       5.8368520      -4.7103054
       21.360000    -0.031848867    -0.016402349       5.8014342       6.1152189      -5.1312092
       22.250000    -0.034105540    -0.017383383       6.0406481       6.3969888      -5.5704448
       23.140000    -0.036426331    -0.018383317       6.2795460       6.6823632      -6.0280654
       24.030000    -0.038808216    -0.019400100       6.5181136       6.9715521      -6.5041265
       24.920000    -0.041248117    -0.020431696       6.7563362       7.2647749      -6.9986860
       25.810000    -0.043742898    -0.021476097       6.9941990       7.5622612      -7.5118042
       26.700000    -0.046289377    -0.022531336       7.2316869       7.8642514      -8.0435436
       27.590000    -0.048884325    -0.023595498       7.4687848       8.1709978      -8.5939690
       28.480000    -0.051524474    -0.024666732       7.7054768       8.4827651      -9.1631477
       29.370000    -0.054206518    -0.025743269       7.9417473       8.7998321      -9.7511493
       30.260000    -0.056927121    -0.026823431       8.1775800       9.1224919      -10.358046
       31.150000    -0.059682914    -0.027905651       8.4129585       9.4510539      -10.983912
       32.040000    -0.062470505    -0.028988486       8.6478659       9.7858445      -11.628824
       32.930000    -0.065286473    -0.030070633       8.8822851       10.127209      -12.292862
       33.820000    -0.068127376    -0.031150945       9.1161986       10.475512      -12.976107
       34.710000    -0.070989749    -0.032228454       9.3495885       10.831142      -13.678643
       35.600000    -0.073870103    -0.033302382       9.5824365       11.194508      -14.400558
       36.490000    -0.076764927    -0.034372166       9.8147240       11.566048      -15.141939
       37.380000    -0.079670684    -0.035437474       10.046432       11.946226      -15.902879
       38.270000    -0.082583808    -0.036498229       10.277540       12.335536      -16.683472
       39.160000    -0.085500704    -0.037554628       10.508030       12.734507      -17.483814
       40.050000    -0.088417738    -0.038607166       10.737879       13.143703      -18.304003
       40.940000    -0.091331233    -0.039656660       10.967068       13.563727      -19.144143
       41.830000    -0.094237463    -0.040704273       11.195574       13.995226      -20.004336
       42.720000    -0.097132644    -0.041751540       11.423375       14.438893      -20.884689
       43.610000     -0.10001292    -0.042800393       11.650449       14.895474      -21.785310
       44.500000     -0.10287436    -0.043853192       11.876772       15.365772      -22.706311
       45.390000     -0.10571294    -0.044912754       12.102321       15.850652      -23.647805
       46.280000     -0.10852451    -0.045982380       12.327069       16.351047      -24.609909
       47.170000     -0.11130483    -0.047065893       12.550993       16.867968      -25.592740
       48.060000     -0.11404948    -0.048167666       12.774066       17.402511      -26.596420
       48.950000     -0.11675391    -0.049292661       12.996260       17.955862      -27.621071
       49.840000     -0.11941337    -0.050446463       13.217549       18.529314      -28.666819
       50.730000     -0.12202291    -0.051635322       13.437904       19.124275      -29.733790
       51.620000     -0.12457735    -0.052866191       13.657294       19.742283      -30.822114
       52.510000     -0.12707126    -0.054146769       13.875691       20.385019      -31.931922
       53.400000     -0.12949893    -0.055485547       14.093062       21.054327      -33.063348
       54.290000     -0.13185432    -0.056891854       14.309375       21.752234      -34.216527
       55.180000     -0.13413108    -0.058375904       14.524598       22.480972      -35.391595
       56.070000     -0.13632247    -0.059948852       14.738694       23.243006      -36.588692
       56.960000     -0.13842139    -0.061622845       14.951630       24.041066      -37.807957
       57.850000     -0.14042026    -0.063411081       15.163368       24.878181      -39.049531
       58.740000     -0.14231111    -0.065327866       15.373870       25.757726      -40.313558
       59.630000     -0.14408544    -0.067388682       15.583098       26.683469      -41.600180
       60.520000     -0.14573428    -0.069610245       15.791010       27.659632      -42.909541
       61.410000     -0.14724813    -0.072010583       15.997566       28.690960      -44.241788
       62.300000     -0.14861694    -0.074609100       16.202721       29.782807      -45.597066
       63.190000     -0.14983016    -0.077426659       16.406432       30.941239      -46.975519
       64.080000     -0.15087663    -0.080485655       16.608651       32.173151      -48.377294
       64.970000     -0.15174471    -0.083810101       16.809332       33.486416      -49.802536
       65.860000     -0.15242220    -0.087425717       17.008425       34.890070      -51.251388
       66.750000     -0.15289646    -0.091360013       17.205879       36.394529      -52.723996
       67.640000     -0.15315438    -0.095642387       17.401642       38.011865      -54.220500
       68.530000     -0.15318251     -0.10030422       17.595659       39.756152      -55.741042
       69.420000     -0.15296714     -0.10537899       17.787874       41.643896      -57.285759
       70.310000     -0.15249442     -0.11090234       17.978230       43.694586      -58.854788
       71.200000     -0.15175049     -0.11691222       18.166666       45.931399      -60.448262
       72.090000     -0.15072173     -0.12344900       18.353122       48.382116      -62.066310
       72.980000     -0.14939494     -0.13055553       18.537533       51.080331      -63.709058
       73.870000     -0.14775765     -0.13827731       18.719834       54.067046      -65.376628
       74.760000     -0.14579844     -0.14666260       18.899958       57.392841      -67.069137
       75.650000     -0.14350735     -0.15576248       19.077836       61.120842      -68.786694
       76.540000     -0.14087634     -0.16563103       19.253395       65.330868      -70.529406
       77.430000     -0.13789983     -0.17632542       19.426563       70.125342      -72.297372
       78.320000     -0.13457532     -0.18790599       19.597264       75.637902      -74.090683
       79.210000     -0.13090411     -0.20043643       19.765421       82.046274      -75.909423
       80.100000     -0.12689211     -0.21398381       19.930955       89.592094      -77.753667
       80.990000     -0.12255075     -0.22861872       20.093785       98.612465      -79.623484
       81.880000     -0.11789803     -0.24441535       20.253828       109.59228      -81.518929
       82.770000     -0.11295963     -0.26145156       20.410998       123.25520      -83.440052
       83.660000     -0.10777021     -0.27980897       20.565209       140.73120      -85.386887
       84.550000     -0.10237480     -0.29957300       20.716373       163.88839      -87.359463
       85.440000    -0.096830292     -0.32083292       20.864400       196.05329      -89.357791
       86.330000    -0.091207126     -0.34368185       21.009199       243.77923      -91.381875
       87.220000    -0.085591011     -0.36821676       21.150676       322.01158      -93.431703
       88.110000    -0.080084821     -0.39453844       21.288736       473.84676      -95.507253
       89.000000    -0.074810550     -0.42275116       21.423285       895.80437      -97.608486

Table series: Data for wavelength : 0.587562 µm.
   Y Angle (deg)       Tan Shift       Sag Shift     Real Height     Ref. Height      Distortion
  --------------  --------------  --------------  --------------  --------------  --------------
      0.00000000     0.068813369     0.068813369      0.00000000      0.00000000      0.00000000
      0.89000000     0.068748120     0.068784334      0.24299747      0.24301901 -8.8638481E-003
       1.7800000     0.068556837     0.068697294      0.48598296      0.48615534    -0.035456438
       2.6700000     0.068239713     0.068552434      0.72894452      0.72952654    -0.079780896
       3.5600000     0.067797075     0.068350069      0.97187013      0.97325061     -0.14184244
       4.4500000     0.067229383     0.068090633       1.2147478       1.2174462     -0.22164837
       5.3400000     0.066537229     0.067774686       1.4575655       1.4622330     -0.31920808
       6.2300000     0.065721336     0.067402905       1.7003111       1.7077318     -0.43453305
       7.1200000     0.064782556     0.066976086       1.9429726       1.9540645     -0.56763688
       8.0100000     0.063721864     0.066495141       2.1855377       2.2013552     -0.71853525
       8.9000000     0.062540363     0.065961094       2.4279942       2.4497294     -0.88724595
       9.7900000     0.061239275     0.065375077       2.6703299       2.6993149      -1.0737889
       10.680000     0.059819940     0.064738329       2.9125325       2.9502421      -1.2781861
       11.570000     0.058283812     0.064052186       3.1545894       3.2026438      -1.5004617
       12.460000     0.056632458     0.063318083       3.3964882       3.4566562      -1.7406421
       13.350000     0.054867549     0.062537543       3.6382162       3.7124183      -1.9987555
       14.240000     0.052990861     0.061712176       3.8797607       3.9700733      -2.2748327
       15.130000     0.051004268     0.060843671       4.1211090       4.2297678      -2.5689063
       16.020000     0.048909738     0.059933786       4.3622481       4.4916531      -2.8810112
       16.910000     0.046709327     0.058984350       4.6031649       4.7558851      -3.2111846
       17.800000     0.044405179     0.057997245       4.8438462       5.0226248      -3.5594657
       18.690000     0.041999514     0.056974406       5.0842786       5.2920386      -3.9258960
       19.580000     0.039494630     0.055917810       5.3244488       5.5642989      -4.3105192
       20.470000     0.036892892     0.054829467       5.5643429       5.8395848      -4.7133812
       21.360000     0.034196733     0.053711411       5.8039473       6.1180820      -5.1345303
       22.250000     0.031408643     0.052565692       6.0432478       6.3999839      -5.5740167
       23.140000     0.028531170     0.051394362       6.2822302       6.6854920      -6.0318933
       24.030000     0.025566910     0.050199469       6.5208802       6.9748162      -6.5082149
       24.920000     0.022518508     0.048983042       6.7591831       7.2681763      -7.0030389
       25.810000     0.019388648     0.047747083       6.9971241       7.5658019      -7.5164249
       26.700000     0.016180052     0.046493550       7.2346880       7.8679335      -8.0484347
       27.590000     0.012895478     0.045224350       7.4718596       8.1748235      -8.5991326
       28.480000  9.5377142E-003     0.043941322       7.7086231       8.4867368      -9.1685852
       29.370000  6.1095752E-003     0.042646224       7.9449628       8.8039522      -9.7568615
       30.260000  2.6139028E-003     0.041340718       8.1808624       9.1267631      -10.364033
       31.150000 -9.4643745E-004     0.040026357       8.4163055       9.4554789      -10.990173
       32.040000 -4.5685573E-003     0.038704567       8.6512752       9.7904263      -11.635358
       32.930000 -8.2495455E-003     0.037376633       8.8857544       10.131950      -12.299666
       33.820000    -0.011986468     0.036043682       9.1197256       10.480417      -12.983179
       34.710000    -0.015776366     0.034706660       9.3531709       10.836213      -13.685980
       35.600000    -0.019616253     0.033366324       9.5860721       11.199749      -14.408155
       36.490000    -0.023503114     0.032023212       9.8184106       11.571463      -15.149793
       37.380000    -0.027433897     0.030677631       10.050167       11.951819      -15.910983
       38.270000    -0.031405511     0.029329633       10.281322       12.341312      -16.691820
       39.160000    -0.035414814     0.027978993       10.511856       12.740470      -17.492399
       40.050000    -0.039458610     0.026625188       10.741748       13.149857      -18.312819
       40.940000    -0.043533634     0.025267376       10.970976       13.570078      -19.153180
       41.830000    -0.047636544     0.023904363       11.199521       14.001778      -20.013585
       42.720000    -0.051763905     0.022534590       11.427358       14.445653      -20.894141
       43.610000    -0.055912172     0.021156095       11.654467       14.902449      -21.794955
       44.500000    -0.060077679     0.019766492       11.880822       15.372967      -22.716138
       45.390000    -0.064256610     0.018362943       12.106401       15.858073      -23.657804
       46.280000    -0.068444988     0.016942121       12.331179       16.358703      -24.620066
       47.170000    -0.072638643     0.015500186       12.555131       16.875866      -25.603044
       48.060000    -0.076833190     0.014032749       12.778229       17.410658      -26.606857
       48.950000    -0.081024003     0.012534835       13.000449       17.964269      -27.631628
       49.840000    -0.085206177     0.011000850       13.221761       18.537989      -28.677481
       50.730000    -0.089374505  9.4245457E-003       13.442138       19.133229      -29.744544
       51.620000    -0.093523436  7.7989724E-003       13.661549       19.751527      -30.832945
       52.510000    -0.097647040  6.1164441E-003       13.879966       20.394564      -31.942814
       53.400000     -0.10173897  4.3684922E-003       14.097356       21.064185      -33.074286
       54.290000     -0.10579242  2.5458201E-003       14.313688       21.762419      -34.227495
       55.180000     -0.10980008  6.3825579E-004       14.528928       22.491498      -35.402578
       56.070000     -0.11375409 -1.3652990E-003       14.743042       23.253889      -36.599672
       56.960000     -0.11764601 -3.4769213E-003       14.955994       24.052322      -37.818919
       57.850000     -0.12146676 -5.7097220E-003       15.167748       24.889829      -39.060458
       58.740000     -0.12520657 -8.0779045E-003       15.378266       25.769786      -40.324432
       59.630000     -0.12885495    -0.010596825       15.587509       26.695962      -41.610986
       60.520000     -0.13240062    -0.013283057       15.795437       27.672582      -42.920262
       61.410000     -0.13583152    -0.016154459       16.002008       28.704393      -44.252407
       62.300000     -0.13913472    -0.019230241       16.207179       29.796752      -45.607566
       63.190000     -0.14229641    -0.022531043       16.410905       30.955726      -46.985884
       64.080000     -0.14530188    -0.026079010       16.613140       32.188214      -48.387508
       64.970000     -0.14813550    -0.029897870       16.813836       33.502095      -49.812581
       65.860000     -0.15078072    -0.034013020       17.012946       34.906406      -51.261251
       66.750000     -0.15322006    -0.038451615       17.210416       36.411569      -52.733659
       67.640000     -0.15543517    -0.043242654       17.406196       38.029662      -54.229948
       68.530000     -0.15740686    -0.048417078       17.600230       39.774766      -55.750260
       69.420000     -0.15911514    -0.054007867       17.792464       41.663394      -57.294733
       70.310000     -0.16053939    -0.060050138       17.982838       43.715044      -58.863503
       71.200000     -0.16165844    -0.066581252       18.171293       45.952904      -60.456704
       72.090000     -0.16245074    -0.073640920       18.357767       48.404769      -62.074466
       72.980000     -0.16289462    -0.081271311       18.542198       51.104247      -63.716914
       73.870000     -0.16296850    -0.089517159       18.724519       54.092360      -65.384171
       74.760000     -0.16265127    -0.098425884       18.904664       57.419713      -67.076353
       75.650000     -0.16192265     -0.10804770       19.082562       61.149459      -68.793572
       76.540000     -0.16076367     -0.11843571       19.258143       65.361457      -70.535934
       77.430000     -0.15915720     -0.12964607       19.431333       70.158175      -72.303537
       78.320000     -0.15708860     -0.14173802       19.602057       75.673316      -74.096475
       79.210000     -0.15454648     -0.15477408       19.770237       82.084689      -75.914829
       80.100000     -0.15152349     -0.16882009       19.935796       89.634041      -77.758678
       80.990000     -0.14801733     -0.18394530       20.098651       98.658636      -79.628088
       81.880000     -0.14403182     -0.20022253       20.258719       109.64360      -81.523117
       82.770000     -0.13957811     -0.21772819       20.415918       123.31291      -83.443812
       83.660000     -0.13467603     -0.23654234       20.570159       140.79709      -85.390210
       84.550000     -0.12935560     -0.25674883       20.721356       163.96512      -87.362339
       85.440000     -0.12365863     -0.27843525       20.869418       196.14508      -89.360213
       86.330000     -0.11764052     -0.30169299       21.014256       243.89337      -91.383834
       87.220000     -0.11137214     -0.32661726       21.155777       322.16235      -93.433194
       88.110000     -0.10494184     -0.35330702       21.293888       474.06861      -95.508269
       89.000000    -0.098457641     -0.38186468       21.428495       896.22379      -97.609024

Table series: Data for wavelength : 0.656273 µm.
   Y Angle (deg)       Tan Shift       Sag Shift     Real Height     Ref. Height      Distortion
  --------------  --------------  --------------  --------------  --------------  --------------
      0.00000000      0.13227754      0.13227754      0.00000000      0.00000000      0.00000000
      0.89000000      0.13220764      0.13224717      0.24318761      0.24320917 -8.8653779E-003
       1.7800000      0.13200384      0.13215612      0.48636322      0.48653576    -0.035462205
       2.6700000      0.13166634      0.13200458      0.72951483      0.73009740    -0.079793711
       3.5600000      0.13119543      0.13179286      0.97263040      0.97401219     -0.14186509
       4.4500000      0.13059157      0.13152141       1.2156979       1.2183989     -0.22168362
       5.3400000      0.12985530      0.13119078       1.4587053       1.4633773     -0.31925866
       6.2300000      0.12898733      0.13080165       1.7016404       1.7090681     -0.43460165
       7.1200000      0.12798846      0.13035484       1.9444912       1.9555936     -0.56772611
       8.0100000      0.12685963      0.12985124       2.1872454       2.2030778     -0.71864769
       8.9000000      0.12560188      0.12929190       2.4298908       2.4516463     -0.88738410
       9.7900000      0.12421637      0.12867795       2.6724150       2.7014271      -1.0739552
       10.680000      0.12270439      0.12801063       2.9148057       2.9525506      -1.2783829
       11.570000      0.12106732      0.12729129       3.1570505       3.2051499      -1.5006912
       12.460000      0.11930664      0.12652138       3.3991368       3.4593610      -1.7409064
       13.350000      0.11742394      0.12570242       3.6410519       3.7153233      -1.9990568
       14.240000      0.11542092      0.12483603       3.8827832       3.9731799      -2.2751728
       15.130000      0.11329935      0.12392390       4.1243177       4.2330776      -2.5692871
       16.020000      0.11106110      0.12296782       4.3656426       4.4951679      -2.8814344
       16.910000      0.10870812      0.12196961       4.6067446       4.7596066      -3.2116517
       17.800000      0.10624244      0.12093117       4.8476107       5.0265550      -3.5599781
       18.690000      0.10366616      0.11985443       5.0882275       5.2961796      -3.9264551
       19.580000      0.10098147      0.11874140       5.3285814       5.5686530      -4.3111260
       20.470000     0.098190585      0.11759409       5.5686587       5.8441543      -4.7140368
       21.360000     0.095295820      0.11641453       5.8084457       6.1228695      -5.1352353
       22.250000     0.092299522      0.11520480       6.0479283       6.4049920      -5.5747720
       23.140000     0.089204097      0.11396696       6.2870922       6.6907234      -6.0326992
       24.030000     0.086011992      0.11270306       6.5259230       6.9802741      -6.5090718
       24.920000     0.082725700      0.11141514       6.7644062       7.2738637      -7.0039470
       25.810000     0.079347751      0.11010521       7.0025268       7.5717222      -7.5173840
       26.700000     0.075880707      0.10877524       7.2402697       7.8740902      -8.0494446
       27.590000     0.072327163      0.10742715       7.4776196       8.1812203      -8.6001930
       28.480000     0.068689741      0.10606278       7.7145609       8.4933777      -9.1696954
       29.370000     0.064971091      0.10468391       7.9510776       8.8108413      -9.7580207
       30.260000     0.061173885      0.10329219       8.1871537       9.1339049      -10.365240
       31.150000     0.057300817      0.10188919       8.4227726       9.4628779      -10.991427
       32.040000     0.053354608      0.10047635       8.6579175       9.7980874      -11.636658
       32.930000     0.049337996     0.099054949       8.8925713       10.139879      -12.301010
       33.820000     0.045253750     0.097626127       9.1267164       10.488618      -12.984566
       34.710000     0.041104662     0.096190835       9.3603351       10.844692      -13.687407
       35.600000     0.036893554     0.094749833       9.5934091       11.208513      -14.409620
       36.490000     0.032623285     0.093303665       9.8259197       11.580518      -15.151294
       37.380000     0.028296755     0.091852640       10.057848       11.961171      -15.912518
       38.270000     0.023916910     0.090396815       10.289174       12.350969      -16.693386
       39.160000     0.019486755     0.088935968       10.519878       12.750439      -17.493993
       40.050000     0.015009361     0.087469578       10.749940       13.160147      -18.314439
       40.940000     0.010487879     0.085996804       10.979338       13.580696      -19.154822
       41.830000  5.9255529E-003     0.084516456       11.208051       14.012735      -20.015247
       42.720000  1.3257360E-003     0.083026974       11.436058       14.456957      -20.895819
       43.610000 -3.3080918E-003     0.081526400       11.663334       14.914110      -21.796646
       44.500000 -7.9723036E-003     0.080012351       11.889858       15.384996      -22.717838
       45.390000    -0.012663104     0.078481987       12.115604       15.870482      -23.659509
       46.280000    -0.017376502     0.076931986       12.340549       16.371504      -24.621773
       47.170000    -0.022108289     0.075358510       12.564667       16.889072      -25.604749
       48.060000    -0.026854005     0.073757172       12.787932       17.424282      -26.608557
       48.950000    -0.031608906     0.072123004       13.010318       17.978326      -27.633319
       49.840000    -0.036367935     0.070450417       13.231796       18.552496      -28.679159
       50.730000    -0.041125678     0.068733168       13.452338       19.148201      -29.746204
       51.620000    -0.045876328     0.066964317       13.671916       19.766982      -30.834584
       52.510000    -0.050613642     0.065136190       13.890498       20.410522      -31.944429
       53.400000    -0.055330897     0.063240330       14.108053       21.080668      -33.075873
       54.290000    -0.060020841     0.061267457       14.324550       21.779448      -34.229050
       55.180000    -0.064675643     0.059207418       14.539955       22.509098      -35.404097
       56.070000    -0.069286845     0.057049138       14.754234       23.272085      -36.601153
       56.960000    -0.073845309     0.054780567       14.967351       24.071143      -37.820357
       57.850000    -0.078341161     0.052388626       15.179270       24.909306      -39.061851
       58.740000    -0.082763738     0.049859147       15.389953       25.789951      -40.325777
       59.630000    -0.087101537     0.047176816       15.599361       26.716852      -41.612280
       60.520000    -0.091342159     0.044325110       15.807453       27.694236      -42.921503
       61.410000    -0.095472259     0.041286225       16.014189       28.726854      -44.253593
       62.300000    -0.099477504     0.038041013       16.219525       29.820068      -45.608694
       63.190000     -0.10334253     0.034568906       16.423415       30.979949      -46.986953
       64.080000     -0.10705089     0.030847840       16.625815       32.213402      -48.388515
       64.970000     -0.11058506     0.026854175       16.826676       33.528310      -49.813527
       65.860000     -0.11392640     0.022562614       17.025950       34.933720      -51.262134
       66.750000     -0.11705515     0.017946115       17.223585       36.440061      -52.734479
       67.640000     -0.11995048     0.012975799       17.419528       38.059421      -54.230706
       68.530000     -0.12259048  7.6208613E-003       17.613726       39.805890      -55.750955
       69.420000     -0.12495224  1.8484712E-003       17.806123       41.695996      -57.295365
       70.310000     -0.12701195 -4.3763276E-003       17.996660       43.749251      -58.864074
       71.200000     -0.12874501    -0.011090719       18.185277       45.988862      -60.457214
       72.090000     -0.13012622    -0.018334222       18.371914       48.442646      -62.074917
       72.980000     -0.13112993    -0.026148795       18.556505       51.144236      -63.717309
       73.870000     -0.13173038    -0.034578952       18.738987       54.134688      -65.384511
       74.760000     -0.13190197    -0.043671869       18.919291       57.464644      -67.076642
       75.650000     -0.13161966    -0.053477497       19.097347       61.197309      -68.793812
       76.540000     -0.13085946    -0.064048679       19.273085       65.412602      -70.536128
       77.430000     -0.12959895    -0.075441256       19.446431       70.213074      -72.303689
       78.320000     -0.12781797    -0.087714181       19.617310       75.732530      -74.096588
       79.210000     -0.12549933     -0.10092963       19.785644       82.148920      -75.914907
       80.100000     -0.12262969     -0.11515308       19.951354       89.704180      -77.758725
       80.990000     -0.11920056     -0.13045346       20.114359       98.735837      -79.628107
       81.880000     -0.11520941     -0.14690318       20.274577       109.72939      -81.523112
       82.770000     -0.11066089     -0.16457826       20.431922       123.40940      -83.443788
       83.660000     -0.10556828     -0.18355838       20.586309       140.90727      -85.390173
       84.550000    -0.099954996     -0.20392694       20.737650       164.09343      -87.362291
       85.440000    -0.093856298     -0.22577111       20.885855       196.29856      -89.360159
       86.330000    -0.087321110     -0.24918187       21.030834       244.08421      -91.383779
       87.220000    -0.080414002     -0.27425396       21.172496       322.41444      -93.433143
       88.110000    -0.073217300     -0.30108590       21.310747       474.43958      -95.508227
       89.000000    -0.065833302     -0.32977969       21.445493       896.92509      -97.608998
