Results for:	
File:	C:\Users\User\OneDrive - Massachusetts Institute of Technology\Documents\MIT\Grad School\Classes\2.156\Lens Project\Prime Lenses\US007161746_Example09P.zmx
Title:	US 7,161,746 Example 9 (Nikon AF Fisheye-Nikkor 10.5mm f/2.8G ED)
Date:	11/7/2025 5:39:41 PM

0 message(s) in output.
3 series table(s) in output.

Table series: Data for wavelength : 0.486133 µm.
   Y Angle (deg)       Tan Shift       Sag Shift     Real Height     Ref. Height      Distortion
  --------------  --------------  --------------  --------------  --------------  --------------
      0.00000000    -0.030622473    -0.030622473      0.00000000      0.00000000      0.00000000
      0.89000000    -0.030645678    -0.030631424      0.16385041      0.16386540 -9.1478887E-003
       1.7800000    -0.030717930    -0.030658250      0.32768996      0.32780991    -0.036591880
       2.6700000    -0.030839131    -0.030702871      0.49150778      0.49191279    -0.082334377
       3.5600000    -0.031009112    -0.030765153      0.65529300      0.65625361     -0.14637915
       4.4500000    -0.031227636    -0.030844910      0.81903472      0.82091240     -0.22873147
       5.3400000    -0.031494403    -0.030941902      0.98272204      0.98596981     -0.32939813
       6.2300000    -0.031809043    -0.031055840       1.1463440       1.1515073     -0.44838743
       7.1200000    -0.032171125    -0.031186385       1.3098898       1.3176071     -0.58570920
       8.0100000    -0.032580153    -0.031333146       1.4733482       1.4843528     -0.74137478
       8.9000000    -0.033035572    -0.031495689       1.6367084       1.6518292     -0.91539704
       9.7900000    -0.033536768    -0.031673531       1.7999592       1.8201223      -1.1077904
       10.680000    -0.034083069    -0.031866148       1.9630895       1.9893201      -1.3185708
       11.570000    -0.034673752    -0.032072972       2.1260882       2.1595122      -1.5477557
       12.460000    -0.035308040    -0.032293396       2.2889441       2.3307903      -1.7953641
       13.350000    -0.035985110    -0.032526779       2.4516459       2.5032483      -2.0614167
       14.240000    -0.036704093    -0.032772442       2.6141823       2.6769826      -2.3459357
       15.130000    -0.037464079    -0.033029679       2.7765418       2.8520921      -2.6489447
       16.020000    -0.038264120    -0.033297752       2.9387129       3.0286789      -2.9704691
       16.910000    -0.039103234    -0.033575900       3.1006842       3.2068480      -3.3105358
       17.800000    -0.039980409    -0.033863342       3.2624438       3.3867080      -3.6691734
       18.690000    -0.040894605    -0.034159278       3.4239802       3.5683712      -4.0464119
       19.580000    -0.041844762    -0.034462896       3.5852813       3.7519538      -4.4422832
       20.470000    -0.042829802    -0.034773373       3.7463354       3.9375764      -4.8568206
       21.360000    -0.043848633    -0.035089883       3.9071302       4.1253644      -5.2900592
       22.250000    -0.044900157    -0.035411598       4.0676536       4.3154482      -5.7420356
       23.140000    -0.045983270    -0.035737696       4.2278933       4.5079635      -6.2127882
       24.030000    -0.047096870    -0.036067363       4.3878368       4.7030521      -6.7023570
       24.920000    -0.048239861    -0.036399803       4.5474715       4.9008620      -7.2107838
       25.810000    -0.049411158    -0.036734236       4.7067846       5.1015481      -7.7381117
       26.700000    -0.050609692    -0.037069913       4.8657633       5.3052726      -8.2843861
       27.590000    -0.051834413    -0.037406112       5.0243945       5.5122056      -8.8496536
       28.480000    -0.053084301    -0.037742154       5.1826648       5.7225258      -9.4339627
       29.370000    -0.054358363    -0.038077402       5.3405609       5.9364211      -10.037364
       30.260000    -0.055655643    -0.038411271       5.4980691       6.1540894      -10.659908
       31.150000    -0.056975226    -0.038743234       5.6551756       6.3757393      -11.301651
       32.040000    -0.058316243    -0.039072832       5.8118662       6.6015912      -11.962646
       32.930000    -0.059677873    -0.039399675       5.9681267       6.8318777      -12.642950
       33.820000    -0.061059350    -0.039723458       6.1239427       7.0668453      -13.342624
       34.710000    -0.062459970    -0.040043962       6.2792991       7.3067551      -14.061727
       35.600000    -0.063879088    -0.040361067       6.4341811       7.5518843      -14.800322
       36.490000    -0.065316129    -0.040674757       6.5885734       7.8025274      -15.558472
       37.380000    -0.066770586    -0.040985134       6.7424602       8.0589976      -16.336243
       38.270000    -0.068242030    -0.041292421       6.8958256       8.3216289      -17.133704
       39.160000    -0.069730106    -0.041596976       7.0486535       8.5907772      -17.950922
       40.050000    -0.071234543    -0.041899300       7.2009273       8.8668233      -18.787968
       40.940000    -0.072755149    -0.042200049       7.3526301       9.1501740      -19.644915
       41.830000    -0.074291822    -0.042500042       7.5037446       9.4412657      -20.521837
       42.720000    -0.075844543    -0.042800277       7.6542530       9.7405664      -21.418810
       43.610000    -0.077413385    -0.043101935       7.8041375       10.048579      -22.335909
       44.500000    -0.078998508    -0.043406399       7.9533795       10.365845      -23.273215
       45.390000    -0.080600165    -0.043715261       8.1019601       10.692948      -24.230807
       46.280000    -0.082218698    -0.044030342       8.2498601       11.030517      -25.208766
       47.170000    -0.083854540    -0.044353694       8.3970594       11.379236      -26.207175
       48.060000    -0.085508214    -0.044687627       8.5435380       11.739841      -27.226119
       48.950000    -0.087180333    -0.045034712       8.6892749       12.113135      -28.265682
       49.840000    -0.088871596    -0.045397804       8.8342488       12.499990      -29.325951
       50.730000    -0.090582790    -0.045780053       8.9784378       12.901354      -30.407013
       51.620000    -0.092314785    -0.046184921       9.1218194       13.318266      -31.508957
       52.510000    -0.094068533    -0.046616201       9.2643705       13.751860      -32.631872
       53.400000    -0.095845066    -0.047078033       9.4060675       14.203379      -33.775848
       54.290000    -0.097645492    -0.047574921       9.5468860       14.674192      -34.940975
       55.180000    -0.099470997    -0.048111755       9.6868009       15.165803      -36.127344
       56.070000     -0.10132284    -0.048693828       9.8257866       15.679875      -37.335047
       56.960000     -0.10320234    -0.049326859       9.9638166       16.218251      -38.564175
       57.850000     -0.10511091    -0.050017013       10.100864       16.782975      -39.814819
       58.740000     -0.10705000    -0.050770925       10.236900       17.376321      -41.087071
       59.630000     -0.10902118    -0.051595723       10.371896       18.000833      -42.381021
       60.520000     -0.11102604    -0.052499052       10.505823       18.659358      -43.696759
       61.410000     -0.11306629    -0.053489100       10.638651       19.355098      -45.034375
       62.300000     -0.11514370    -0.054574625       10.770347       20.091666      -46.393957
       63.190000     -0.11726017    -0.055764985       10.900880       20.873151      -47.775591
       64.080000     -0.11941768    -0.057070162       11.030216       21.704206      -49.179362
       64.970000     -0.12161836    -0.058500798       11.158321       22.590143      -50.605354
       65.860000     -0.12386448    -0.060068224       11.285160       23.537057      -52.053648
       66.750000     -0.12615852    -0.061784493       11.410697       24.551974      -53.524320
       67.640000     -0.12850316    -0.063662415       11.534894       25.643039      -55.017447
       68.530000     -0.13090138    -0.065715594       11.657712       26.819746      -56.533099
       69.420000     -0.13335645    -0.067958464       11.779113       28.093230      -58.071345
       70.310000     -0.13587209    -0.070406326       11.899056       29.476638      -59.632248
       71.200000     -0.13845246    -0.073075394       12.017498       30.985605      -61.215868
       72.090000     -0.14110233    -0.075982829       12.134397       32.638874      -62.822256
       72.980000     -0.14382714    -0.079146789       12.249708       34.459107      -64.451463
       73.870000     -0.14663320    -0.082586469       12.363387       36.473963      -66.103528
       74.760000     -0.14952779    -0.086322148       12.475385       38.717565      -67.778488
       75.650000     -0.15251938    -0.090375234       12.585655       41.232498      -69.476370
       76.540000     -0.15561783    -0.094768317       12.694148       44.072607      -71.197193
       77.430000     -0.15883464    -0.099525212       12.800813       47.306989      -72.940969
       78.320000     -0.16218325     -0.10467101       12.905597       51.025796      -74.707700
       79.210000     -0.16567931     -0.11023213       13.008448       55.348923      -76.497378
       80.100000     -0.16934111     -0.11623636       13.109311       60.439380      -78.309984
       80.990000     -0.17318991     -0.12271293       13.208129       66.524578      -80.145489
       81.880000     -0.17725048     -0.12969252       13.304846       73.931632      -82.003852
       82.770000     -0.18155152     -0.13720734       13.399402       83.148720      -83.885017
       83.660000     -0.18612629     -0.14529117       13.491737       94.938138      -85.788917
       84.550000     -0.19101319     -0.15397938       13.581790       110.56012      -87.715471
       85.440000     -0.19625643     -0.16330899       13.669497       132.25876      -89.664581
       86.330000     -0.20190677     -0.17331869       13.754795       164.45497      -91.636133
       87.220000     -0.20802227     -0.18404887       13.837617       217.23100      -93.629999
       88.110000     -0.21466912     -0.19554159       13.917896       319.65995      -95.646031
       89.000000     -0.22192250     -0.20784061       13.995564       604.31516      -97.684062

Table series: Data for wavelength : 0.587562 µm.
   Y Angle (deg)       Tan Shift       Sag Shift     Real Height     Ref. Height      Distortion
  --------------  --------------  --------------  --------------  --------------  --------------
      0.00000000  6.9766527E-004  6.9766527E-004      0.00000000      0.00000000      0.00000000
      0.89000000  6.5790844E-004  6.8500863E-004      0.16397399      0.16398900 -9.1514426E-003
       1.7800000  5.4117165E-004  6.4706690E-004      0.32793708      0.32805717    -0.036606514
       2.6700000  3.4756145E-004  5.8392465E-004      0.49187834      0.49228382    -0.082367434
       3.5600000  7.7257075E-005  4.9572248E-004      0.65578687      0.65674860     -0.14643791
       4.4500000 -2.6949010E-004  3.8265651E-004      0.81965173      0.82153158     -0.22882312
       5.3400000 -6.9235741E-004  2.4497773E-004      0.98346197      0.98671349     -0.32952974
       6.2300000 -1.1909520E-003  8.2991052E-005       1.1472066       1.1523758     -0.44856593
       7.1200000 -1.7648119E-003 -1.0294575E-004       1.3108747       1.3186009     -0.58594136
       8.0100000 -2.4134080E-003 -3.1242334E-004       1.4744551       1.4854724     -0.74166716
       8.9000000 -3.1361453E-003 -5.4498236E-004       1.6379369       1.6530751     -0.91575601
       9.7900000 -3.9323652E-003 -8.0011505E-004       1.8013089       1.8214952      -1.1082221
       10.680000 -4.8013474E-003 -1.0772672E-003       1.9645600       1.9908206      -1.3190810
       11.570000 -5.7423125E-003 -1.3758403E-003       2.1276790       2.1611410      -1.5483500
       12.460000 -6.7544247E-003 -1.6951937E-003       2.2906547       2.3325483      -1.7960478
       13.350000 -7.8367941E-003 -2.0346472E-003       2.4534756       2.5051364      -2.0621947
       14.240000 -8.9884802E-003 -2.3934837E-003       2.6161306       2.6790017      -2.3468125
       15.130000    -0.010208495 -2.7709523E-003       2.7786080       2.8542433      -2.6499245
       16.020000    -0.011495805 -3.1662710E-003       2.9408965       3.0309633      -2.9715557
       16.910000    -0.012849337 -3.5786306E-003       3.1029845       3.2092668      -3.3117326
       17.800000    -0.014267981 -4.0071976E-003       3.2648602       3.3892625      -3.6704833
       18.690000    -0.015750592 -4.4511184E-003       3.4265118       3.5710626      -4.0478375
       19.580000    -0.017295995 -4.9095229E-003       3.5879276       3.7547837      -4.4438264
       20.470000    -0.018902991 -5.3815289E-003       3.7490956       3.9405463      -4.8584830
       21.360000    -0.020570359 -5.8662464E-003       3.9100036       4.1284760      -5.2918417
       22.250000    -0.022296860 -6.3627819E-003       4.0706395       4.3187031      -5.7439388
       23.140000    -0.024081242 -6.8702436E-003       4.2309909       4.5113637      -6.2148121
       24.030000    -0.025922243 -7.3877462E-003       4.3910454       4.7065994      -6.7045011
       24.920000    -0.027818598 -7.9144159E-003       4.5507905       4.9045586      -7.2130468
       25.810000    -0.029769042 -8.4493962E-003       4.7102132       5.1053960      -7.7404921
       26.700000    -0.031772311 -8.9918533E-003       4.8693009       5.3092741      -8.2868816
       27.590000    -0.033827152 -9.5409822E-003       5.0280403       5.5163632      -8.8522614
       28.480000    -0.035932323    -0.010096013       5.1864183       5.7268420      -9.4366794
       29.370000    -0.038086601    -0.010656216       5.3444214       5.9408987      -10.040185
       30.260000    -0.040288780    -0.011220910       5.5020361       6.1587312      -10.662830
       31.150000    -0.042537681    -0.011789468       5.6592485       6.3805483      -11.304668
       32.040000    -0.044832152    -0.012361326       5.8160446       6.6065705      -11.965752
       32.930000    -0.047171075    -0.012935988       5.9724102       6.8370307      -12.646141
       33.820000    -0.049553366    -0.013513034       6.1283307       7.0721755      -13.345891
       34.710000    -0.051977978    -0.014092129       6.2837915       7.3122663      -14.065062
       35.600000    -0.054443908    -0.014673031       6.4387775       7.5575804      -14.803718
       36.490000    -0.056950196    -0.015255600       6.5932736       7.8084125      -15.561921
       37.380000    -0.059495929    -0.015839804       6.7472641       8.0650762      -16.339735
       38.270000    -0.062080241    -0.016425732       6.9007332       8.3279055      -17.137229
       39.160000    -0.064702317    -0.017013599       7.0536649       8.5972569      -17.954471
       40.050000    -0.067361394    -0.017603761       7.2060426       8.8735111      -18.791531
       40.940000    -0.070056760    -0.018196719       7.3578495       9.1570756      -19.648480
       41.830000    -0.072787755    -0.018793134       7.5090684       9.4483869      -20.525393
       42.720000    -0.075553772    -0.019393837       7.6596818       9.7479133      -21.422344
       43.610000    -0.078354256    -0.019999838       7.8096717       10.056158      -22.339411
       44.500000    -0.081188700    -0.020612340       7.9590199       10.373663      -23.276671
       45.390000    -0.084056649    -0.021232749       8.1077076       10.701013      -24.234204
       46.280000    -0.086957691    -0.021862691       8.2557154       11.038837      -25.212092
       47.170000    -0.089891462    -0.022504015       8.4030239       11.387819      -26.210417
       48.060000    -0.092857635    -0.023158820       8.5496127       11.748696      -27.229262
       48.950000    -0.095855920    -0.023829457       8.6954613       12.122272      -28.268714
       49.840000    -0.098886060    -0.024518551       8.8405485       12.509418      -29.328858
       50.730000     -0.10194783    -0.025229012       8.9848524       12.911085      -30.409782
       51.620000     -0.10504101    -0.025964053       9.1283509       13.328312      -31.511574
       52.510000     -0.10816542    -0.026727206       9.2710209       13.762232      -32.634324
       53.400000     -0.11132087    -0.027522338       9.4128390       14.214092      -33.778121
       54.290000     -0.11450719    -0.028353669       9.5537811       14.685260      -34.943057
       55.180000     -0.11772419    -0.029225793       9.6938222       15.177242      -36.129222
       56.070000     -0.12097170    -0.030143692       9.8329369       15.691702      -37.336710
       56.960000     -0.12424950    -0.031112765       9.9710989       16.230484      -38.565610
       57.850000     -0.12755739    -0.032138838       10.108281       16.795633      -39.816016
       58.740000     -0.13089511    -0.033228194       10.244456       17.389427      -41.088019
       59.630000     -0.13426239    -0.034387594       10.379595       18.014410      -42.381711
       60.520000     -0.13765894    -0.035624301       10.513668       18.673432      -43.697183
       61.410000     -0.14108441    -0.036946103       10.646646       19.369697      -45.034525
       62.300000     -0.14453847    -0.038361344       10.778497       20.106820      -46.393825
       63.190000     -0.14802072    -0.039878946       10.909189       20.888895      -47.775173
       64.080000     -0.15153078    -0.041508443       11.038689       21.720577      -49.178654
       64.970000     -0.15506827    -0.043260007       11.166964       22.607182      -50.604353
       65.860000     -0.15863281    -0.045144482       11.293977       23.554810      -52.052351
       66.750000     -0.16222409    -0.047173413       11.419694       24.570492      -53.522730
       67.640000     -0.16584187    -0.049359088       11.544077       25.662380      -55.015564
       68.530000     -0.16948605    -0.051714565       11.667088       26.839975      -56.530929
       69.420000     -0.17315667    -0.054253716       11.788687       28.114419      -58.068893
       70.310000     -0.17685406    -0.056991261       11.908835       29.498871      -59.629523
       71.200000     -0.18057884    -0.059942813       12.027489       31.008976      -61.212879
       72.090000     -0.18433206    -0.063124918       12.144607       32.663493      -62.819018
       72.980000     -0.18811531    -0.066555096       12.260145       34.485098      -64.447991
       73.870000     -0.19193083    -0.070251893       12.374058       36.501474      -66.099841
       74.760000     -0.19578172    -0.074234923       12.486299       38.746768      -67.774606
       75.650000     -0.19967208    -0.078524916       12.596820       41.263598      -69.472318
       76.540000     -0.20360726    -0.083143772       12.705573       44.105849      -71.192999
       77.430000     -0.20759407    -0.088114608       12.812506       47.342671      -72.936664
       78.320000     -0.21164115    -0.093461813       12.917569       51.064282      -74.703318
       79.210000     -0.21575922    -0.099211097       13.020708       55.390671      -76.492958
       80.100000     -0.21996151     -0.10538955       13.121869       60.484967      -78.305570
       80.990000     -0.22426414     -0.11202570       13.220996       66.574755      -80.141127
       81.880000     -0.22868669     -0.11914954       13.318033       73.987395      -81.999593
       82.770000     -0.23325263     -0.12679261       13.412920       83.211436      -83.880918
       83.660000     -0.23799001     -0.13498806       13.505598       95.009746      -85.785039
       84.550000     -0.24293207     -0.14377064       13.596006       110.64351      -87.711881
       85.440000     -0.24811801     -0.15317680       13.684082       132.35851      -89.661351
       86.330000     -0.25359374     -0.16324471       13.769761       164.57901      -91.633343
       87.220000     -0.25941275     -0.17401430       13.852979       217.39485      -93.627733
       88.110000     -0.26563705     -0.18552726       13.933670       319.90106      -95.644382
       89.000000     -0.27233808     -0.19782702       14.011764       604.77097      -97.683129

Table series: Data for wavelength : 0.656273 µm.
   Y Angle (deg)       Tan Shift       Sag Shift     Real Height     Ref. Height      Distortion
  --------------  --------------  --------------  --------------  --------------  --------------
      0.00000000     0.051539384     0.051539384      0.00000000      0.00000000      0.00000000
      0.89000000     0.051492837     0.051525222      0.16415940      0.16417442 -9.1519926E-003
       1.7800000     0.051357820     0.051482764      0.32830787      0.32842810    -0.036608385
       2.6700000     0.051134441     0.051412098      0.49243449      0.49284045    -0.082371493
       3.5600000     0.050822885     0.051313368      0.65652833      0.65749119     -0.14644500
       4.4500000     0.050423410     0.051186772      0.82057843      0.82246050     -0.22883406
       5.3400000     0.049936348     0.051032570      0.98457383      0.98782918     -0.32954531
       6.2300000     0.049362104     0.050851072       1.1485035       1.1536788     -0.44858686
       7.1200000     0.048701153     0.050642644       1.3123566       1.3200919     -0.58596831
       8.0100000     0.047954040     0.050407707       1.4761218       1.4871521     -0.74170076
       8.9000000     0.047121377     0.050146729       1.6397883       1.6549442     -0.91579679
       9.7900000     0.046203844     0.049860231       1.8033448       1.8235547      -1.1082705
       10.680000     0.045202182     0.049548781       1.9667803       1.9930716      -1.3191374
       11.570000     0.044117196     0.049212992       2.1300834       2.1635847      -1.5484147
       12.460000     0.042949749     0.048853521       2.2932430       2.3351858      -1.7961210
       13.350000     0.041700761     0.048471065       2.4562477       2.5079690      -2.0622765
       14.240000     0.040371204     0.048066360       2.6190862       2.6820309      -2.3469028
       15.130000     0.038962100     0.047640176       2.7817470       2.8574707      -2.6500232
       16.020000     0.037474521     0.047193318       2.9442186       3.0343905      -2.9716624
       16.910000     0.035909580     0.046726615       3.1064894       3.2128956      -3.3118470
       17.800000     0.034268430     0.046240926       3.2685477       3.3930948      -3.6706048
       18.690000     0.032552264     0.045737130       3.4303817       3.5751005      -4.0479653
       19.580000     0.030762305     0.045216121       3.5919795       3.7590293      -4.4439598
       20.470000     0.028899804     0.044678811       3.7533293       3.9450020      -4.8586208
       21.360000     0.026966041     0.044126117       3.9144188       4.1331441      -5.2919830
       22.250000     0.024962313     0.043558963       4.0752360       4.3235864      -5.7440821
       23.140000     0.022889937     0.042978273       4.2357684       4.5164647      -6.2149560
       24.030000     0.020750242     0.042384963       4.3960037       4.7119213      -6.7046438
       24.920000     0.018544565     0.041779943       4.5559292       4.9101042      -7.2131866
       25.810000     0.016274250     0.041164103       4.7155322       5.1111687      -7.7406271
       26.700000     0.013940641     0.040538314       4.8747999       5.3152774      -8.2870095
       27.590000     0.011545077     0.039903418       5.0337190       5.5226006      -8.8523799
       28.480000  9.0888921E-003     0.039260226       5.1922765       5.7333174      -9.4367861
       29.370000  6.5734087E-003     0.038609507       5.3504590       5.9476161      -10.040278
       30.260000  3.9999347E-003     0.037951984       5.5082527       6.1656949      -10.662905
       31.150000  1.3697596E-003     0.037288327       5.6656440       6.3877629      -11.304723
       32.040000 -1.3158484E-003     0.036619148       5.8226188       6.6140406      -11.965784
       32.930000 -4.0556462E-003     0.035944987       5.9791629       6.8447614      -12.646145
       33.820000 -6.8484180E-003     0.035266312       6.1352619       7.0801721      -13.345865
       34.710000 -9.6929786E-003     0.034583508       6.2909010       7.3205344      -14.065003
       35.600000    -0.012588176     0.033896869       6.4460652       7.5661258      -14.803622
       36.490000    -0.015532892     0.033206587       6.6007394       7.8172416      -15.561783
       37.380000    -0.018526046     0.032512750       6.7549081       8.0741955      -16.339553
       38.270000    -0.021566595     0.031815325       6.9085553       8.3373220      -17.136998
       39.160000    -0.024653535     0.031114155       7.0616651       8.6069779      -17.954186
       40.050000    -0.027785901     0.030408946       7.2142210       8.8835445      -18.791188
       40.940000    -0.030962768     0.029699258       7.3662061       9.1674297      -19.648076
       41.830000    -0.034183250     0.028984496       7.5176035       9.4590703      -20.524922
       42.720000    -0.037446497     0.028263895       7.6683955       9.7589354      -21.421803
       43.610000    -0.040751699     0.027536515       7.8185642       10.067529      -22.338795
       44.500000    -0.044098076     0.026801225       7.9680915       10.385393      -23.275976
       45.390000    -0.047484882     0.026056693       8.1169585       10.713113      -24.233426
       46.280000    -0.050911398     0.025301371       8.2651460       11.051319      -25.211226
       47.170000    -0.054376931     0.024533488       8.4126346       11.400695      -26.209458
       48.060000    -0.057880806     0.023751030       8.5594040       11.761980      -27.228207
       48.950000    -0.061422362     0.022951732       8.7054336       12.135978      -28.267559
       49.840000    -0.065000947     0.022133058       8.8507023       12.523562      -29.327598
       50.730000    -0.068615913     0.021292190       8.9951885       12.925684      -30.408414
       51.620000    -0.072266605     0.020426012       9.1388698       13.343382      -31.510094
       52.510000    -0.075952358     0.019531093       9.2817235       13.777793      -32.632729
       53.400000    -0.079672486     0.018603669       9.4237260       14.230164      -33.776408
       54.290000    -0.083426277     0.017639628       9.5648533       14.701865      -34.941223
       55.180000    -0.087212982     0.016634490       9.7050805       15.194403      -36.127265
       56.070000    -0.091031810     0.015583388       9.8443823       15.709445      -37.334627
       56.960000    -0.094881917     0.014481048       9.9827324       16.248836      -38.563400
       57.850000    -0.098762401     0.013321768       10.120104       16.814624      -39.813678
       58.740000     -0.10267229     0.012099397       10.256469       17.409090      -41.085552
       59.630000     -0.10661055     0.010807312       10.391800       18.034779      -42.379114
       60.520000     -0.11057607  9.4383916E-003       10.526066       18.694547      -43.694456
       61.410000     -0.11456764  7.9849963E-003       10.659238       19.391599      -45.031670
       62.300000     -0.11858400  6.4389357E-003       10.791285       20.129555      -46.390843
       63.190000     -0.12262380  4.7914469E-003       10.922174       20.912514      -47.772066
       64.080000     -0.12668562  3.0331628E-003       11.051873       21.745137      -49.175426
       64.970000     -0.13076798  1.1540829E-003       11.180348       22.632744      -50.601006
       65.860000     -0.13486938 -8.5645815E-004       11.307564       23.581444      -52.048892
       66.750000     -0.13898827 -3.0098232E-003       11.433484       24.598275      -53.519162
       67.640000     -0.14312315 -5.3181073E-003       11.558073       25.691397      -55.011896
       68.530000     -0.14727253 -7.7941731E-003       11.681291       26.870323      -56.527166
       69.420000     -0.15143507    -0.010451689       11.803100       28.146208      -58.065045
       70.310000     -0.15560956    -0.013305167       11.923459       29.532225      -59.625599
       71.200000     -0.15979506    -0.016370005       12.042327       31.044039      -61.208891
       72.090000     -0.16399096    -0.019662529       12.159661       32.700426      -62.814977
       72.980000     -0.16819710    -0.023200035       12.275417       34.524091      -64.443910
       73.870000     -0.17241391    -0.027000840       12.389550       36.542747      -66.095735
       74.760000     -0.17664260    -0.031084326       12.502013       38.790580      -67.770492
       75.650000     -0.18088526    -0.035470988       12.612759       41.310255      -69.468212
       76.540000     -0.18514520    -0.040182486       12.721739       44.155720      -71.188921
       77.430000     -0.18942710    -0.045241703       12.828903       47.396202      -72.932635
       78.320000     -0.19373737    -0.050672789       12.934198       51.122021      -74.699360
       79.210000     -0.19808446    -0.056501222       13.037573       55.453302      -76.489095
       80.100000     -0.20247926    -0.062753863       13.138972       60.553358      -78.301828
       80.990000     -0.20693553    -0.069459007       13.238340       66.650032      -80.137534
       81.880000     -0.21147041    -0.076646447       13.335620       74.071054      -81.996179
       82.770000     -0.21610495    -0.084347524       13.430754       83.305524      -83.877715
       83.660000     -0.22086477    -0.092595181       13.523683       95.117175      -85.782081
       84.550000     -0.22578069     -0.10142402       13.614344       110.76862      -87.709205
       85.440000     -0.23088957     -0.11087034       13.702677       132.50817      -89.658995
       86.330000     -0.23623505     -0.12097220       13.788616       164.76511      -91.631349
       87.220000     -0.24186851     -0.13176944       13.872099       217.64066      -93.626146
       88.110000     -0.24785000     -0.14330372       13.953057       320.26277      -95.643247
       89.000000     -0.25424928     -0.15561845       14.031424       605.45479      -97.682498
